---ACOUSTIC CALIBRATION---
Filename: C:\Data\AZH DATA\AZH21\RightPrimary.calib
Date: 8/27/2019 12:02:46 PM
Format: 4
Probe Tube Correction File: C:\Data\Probe Tube Calibrations\50_ProbeTube.calib
Experiment VIs: 850
EPL_CFTS.exe V12.0.1 (2012)
DAQmx V9.6

Attenuation (dB): 40.000000
Min Freq (Hz): 50.000000
Max Freq (Hz): 49950.000000
Freq Step (Hz): 50.000000
Sample Rate (Hz): 100000.000000
[Smoothing]
Method=None
MA.Iterations=0
MA.Length=0
Loess.Length=0
Loess.Type=Linear
Loess.Robust=FALSE


Freq(Hz)	Mag(dB)	Phase(deg)	Unsmoothed(dB)

50.00000	101.29411	601.11715	101.29411
100.00000	78.57473	511.61684	78.57473
150.00000	75.70235	505.22840	75.70235
200.00000	80.16274	450.44615	80.16274
250.00000	88.90569	450.03582	88.90569
300.00000	86.38371	397.92732	86.38371
350.00000	86.68412	381.46605	86.68412
400.00000	88.67644	392.54030	88.67644
450.00000	89.88106	367.25623	89.88106
500.00000	90.08065	380.36808	90.08065
550.00000	94.45795	367.74963	94.45795
600.00000	96.05235	361.13838	96.05235
650.00000	99.15710	343.29258	99.15710
700.00000	101.58872	328.87063	101.58872
750.00000	103.08153	311.47519	103.08153
800.00000	103.86314	286.33717	103.86314
850.00000	103.18170	271.88135	103.18170
900.00000	101.71437	252.18740	101.71437
950.00000	99.44288	253.90194	99.44288
1000.00000	98.03325	254.39296	98.03325
1050.00000	95.81040	272.14848	95.81040
1100.00000	97.91897	292.93000	97.91897
1150.00000	100.79053	297.93535	100.79053
1200.00000	103.55845	296.43916	103.55845
1250.00000	105.07862	288.18219	105.07862
1300.00000	106.85334	283.07919	106.85334
1350.00000	108.14689	272.96082	108.14689
1400.00000	109.07808	266.89626	109.07808
1450.00000	110.04053	259.36328	110.04053
1500.00000	111.53649	254.05359	111.53649
1550.00000	111.95100	243.20216	111.95100
1600.00000	113.27929	234.26082	113.27929
1650.00000	114.30562	216.91059	114.30562
1700.00000	113.04255	207.20192	113.04255
1750.00000	112.78852	201.33165	112.78852
1800.00000	112.49064	196.40068	112.49064
1850.00000	112.70716	196.40572	112.70716
1900.00000	113.94465	191.14674	113.94465
1950.00000	114.53758	177.51167	114.53758
2000.00000	113.47289	165.44724	113.47289
2050.00000	112.14951	171.10793	112.14951
2100.00000	113.93676	169.21077	113.93676
2150.00000	114.64102	158.21629	114.64102
2200.00000	114.51846	148.28057	114.51846
2250.00000	113.84882	141.16599	113.84882
2300.00000	113.91400	135.69980	113.91400
2350.00000	113.58048	129.23328	113.58048
2400.00000	113.28504	123.83383	113.28504
2450.00000	112.95457	117.55830	112.95457
2500.00000	112.51421	112.91646	112.51421
2550.00000	112.01887	107.39186	112.01887
2600.00000	111.44842	103.17989	111.44842
2650.00000	110.95899	99.75239	110.95899
2700.00000	110.43291	97.06633	110.43291
2750.00000	109.77830	92.87245	109.77830
2800.00000	109.06691	90.49094	109.06691
2850.00000	108.32077	89.34520	108.32077
2900.00000	107.57284	87.69752	107.57284
2950.00000	106.75538	87.91754	106.75538
3000.00000	105.85091	88.58796	105.85091
3050.00000	104.83262	91.49627	104.83262
3100.00000	104.01350	96.77598	104.01350
3150.00000	103.16366	104.06903	103.16366
3200.00000	102.86695	116.52373	102.86695
3250.00000	103.44734	129.02083	103.44734
3300.00000	104.62928	138.87106	104.62928
3350.00000	106.18767	147.30191	106.18767
3400.00000	108.29992	153.59941	108.29992
3450.00000	110.52789	154.30523	110.52789
3500.00000	112.71834	151.26430	112.71834
3550.00000	114.40698	145.18554	114.40698
3600.00000	115.90891	139.42337	115.90891
3650.00000	117.16358	132.20933	117.16358
3700.00000	118.28329	125.13260	118.28329
3750.00000	119.31047	117.34032	119.31047
3800.00000	120.15131	108.90765	120.15131
3850.00000	120.76719	100.79334	120.76719
3900.00000	121.33867	93.40230	121.33867
3950.00000	121.94175	86.43086	121.94175
4000.00000	122.50891	78.94119	122.50891
4050.00000	123.06461	71.59721	123.06461
4100.00000	123.65217	63.93008	123.65217
4150.00000	124.39014	55.36474	124.39014
4200.00000	124.79902	45.46167	124.79902
4250.00000	125.13777	34.97323	125.13777
4300.00000	125.27319	24.15834	125.27319
4350.00000	125.17235	13.38310	125.17235
4400.00000	124.91464	 3.54584	124.91464
4450.00000	124.56456	-5.62524	124.56456
4500.00000	124.15423	-14.03212	124.15423
4550.00000	123.73790	-22.25492	123.73790
4600.00000	123.25887	-30.07067	123.25887
4650.00000	122.79934	-37.61955	122.79934
4700.00000	122.25357	-45.56618	122.25357
4750.00000	121.54769	-53.54417	121.54769
4800.00000	120.63377	-61.13190	120.63377
4850.00000	119.49914	-67.30389	119.49914
4900.00000	118.25781	-71.50716	118.25781
4950.00000	117.07266	-73.38448	117.07266
5000.00000	116.02857	-73.71245	116.02857
5050.00000	115.10788	-73.33816	115.10788
5100.00000	114.13632	-69.62799	114.13632
5150.00000	114.29117	-65.31541	114.29117
5200.00000	114.00172	-60.64718	114.00172
5250.00000	115.71635	-58.23813	115.71635
5300.00000	116.39826	-68.75355	116.39826
5350.00000	115.94088	-75.99496	115.94088
5400.00000	115.42508	-79.77307	115.42508
5450.00000	115.04443	-82.18651	115.04443
5500.00000	114.74098	-84.35467	114.74098
5550.00000	114.51555	-86.23803	114.51555
5600.00000	114.32011	-88.15515	114.32011
5650.00000	114.17600	-90.13849	114.17600
5700.00000	114.02226	-92.14867	114.02226
5750.00000	113.92861	-93.94888	113.92861
5800.00000	113.82242	-95.76213	113.82242
5850.00000	113.78414	-97.70087	113.78414
5900.00000	113.76135	-99.67963	113.76135
5950.00000	113.78855	-101.91482	113.78855
6000.00000	113.82408	-104.38354	113.82408
6050.00000	113.82084	-107.19708	113.82084
6100.00000	113.80250	-110.08345	113.80250
6150.00000	113.75769	-113.03027	113.75769
6200.00000	113.68124	-115.93025	113.68124
6250.00000	113.60637	-118.68266	113.60637
6300.00000	113.52444	-121.47582	113.52444
6350.00000	113.43876	-124.25717	113.43876
6400.00000	113.34942	-126.86396	113.34942
6450.00000	113.31536	-129.54755	113.31536
6500.00000	113.23627	-132.13237	113.23627
6550.00000	113.16158	-134.87022	113.16158
6600.00000	113.10923	-137.48435	113.10923
6650.00000	113.05390	-140.06657	113.05390
6700.00000	113.01863	-142.89213	113.01863
6750.00000	112.98546	-145.46152	112.98546
6800.00000	112.96005	-148.21729	112.96005
6850.00000	112.93422	-151.00836	112.93422
6900.00000	112.92035	-153.72701	112.92035
6950.00000	112.88959	-156.56341	112.88959
7000.00000	112.88377	-159.44656	112.88377
7050.00000	112.87320	-162.58735	112.87320
7100.00000	112.87885	-165.72245	112.87885
7150.00000	112.87027	-168.84585	112.87027
7200.00000	112.85261	-172.16385	112.85261
7250.00000	112.80646	-175.64056	112.80646
7300.00000	112.79971	-179.08422	112.79971
7350.00000	112.75423	-182.65905	112.75423
7400.00000	112.69937	-186.43188	112.69937
7450.00000	112.63431	-190.23984	112.63431
7500.00000	112.57697	-194.11006	112.57697
7550.00000	112.46310	-197.99993	112.46310
7600.00000	112.31578	-202.03265	112.31578
7650.00000	112.15858	-206.05421	112.15858
7700.00000	112.01858	-210.11940	112.01858
7750.00000	111.78449	-214.17382	111.78449
7800.00000	111.55811	-218.13746	111.55811
7850.00000	111.29960	-222.00290	111.29960
7900.00000	111.03653	-225.65475	111.03653
7950.00000	110.74622	-229.46279	110.74622
8000.00000	110.44015	-233.10923	110.44015
8050.00000	110.13892	-236.79152	110.13892
8100.00000	109.82352	-239.79232	109.82352
8150.00000	109.41252	-242.65703	109.41252
8200.00000	109.05885	-245.14753	109.05885
8250.00000	108.64272	-248.07072	108.64272
8300.00000	108.28039	-250.54320	108.28039
8350.00000	107.85948	-252.77158	107.85948
8400.00000	107.43449	-255.46254	107.43449
8450.00000	106.97057	-257.71148	106.97057
8500.00000	106.53209	-260.06736	106.53209
8550.00000	106.15889	-262.15608	106.15889
8600.00000	105.78843	-264.63033	105.78843
8650.00000	105.44693	-266.48178	105.44693
8700.00000	105.16940	-268.93986	105.16940
8750.00000	104.83219	-269.52525	104.83219
8800.00000	104.58898	-271.29495	104.58898
8850.00000	104.32591	-272.52761	104.32591
8900.00000	104.09703	-273.20474	104.09703
8950.00000	103.85066	-274.28914	103.85066
9000.00000	103.49351	-275.31699	103.49351
9050.00000	103.22449	-276.77196	103.22449
9100.00000	102.91322	-278.07455	102.91322
9150.00000	102.61863	-279.59046	102.61863
9200.00000	102.40097	-281.31736	102.40097
9250.00000	102.14611	-283.20206	102.14611
9300.00000	102.04576	-285.25128	102.04576
9350.00000	101.93413	-286.87574	101.93413
9400.00000	101.76942	-287.89625	101.76942
9450.00000	101.71942	-288.78465	101.71942
9500.00000	101.71491	-288.49851	101.71491
9550.00000	101.76162	-288.55899	101.76162
9600.00000	101.77971	-289.76474	101.77971
9650.00000	101.63029	-291.01391	101.63029
9700.00000	101.44062	-291.64450	101.44062
9750.00000	101.31069	-293.68351	101.31069
9800.00000	101.09141	-294.99674	101.09141
9850.00000	100.94934	-296.72790	100.94934
9900.00000	100.74658	-298.82891	100.74658
9950.00000	100.68215	-300.45546	100.68215
10000.00000	100.65595	-302.60066	100.65595
10050.00000	100.60072	-304.01506	100.60072
10100.00000	100.53584	-305.09900	100.53584
10150.00000	100.37427	-306.88461	100.37427
10200.00000	100.26103	-308.11143	100.26103
10250.00000	100.05321	-309.84760	100.05321
10300.00000	99.95724	-311.67588	99.95724
10350.00000	99.76161	-313.46075	99.76161
10400.00000	99.55147	-316.02523	99.55147
10450.00000	99.53289	-318.63904	99.53289
10500.00000	99.51776	-321.17289	99.51776
10550.00000	99.51157	-323.34172	99.51157
10600.00000	99.47887	-325.16508	99.47887
10650.00000	99.42104	-326.44719	99.42104
10700.00000	99.36244	-328.85288	99.36244
10750.00000	99.29410	-330.70571	99.29410
10800.00000	99.09468	-332.34372	99.09468
10850.00000	98.92562	-335.20934	98.92562
10900.00000	98.76362	-337.30472	98.76362
10950.00000	98.60560	-339.45629	98.60560
11000.00000	98.45771	-341.98247	98.45771
11050.00000	98.17743	-344.16181	98.17743
11100.00000	97.99294	-346.61111	97.99294
11150.00000	97.71420	-348.57707	97.71420
11200.00000	97.54268	-350.28254	97.54268
11250.00000	97.22294	-352.30738	97.22294
11300.00000	96.87472	-354.34854	96.87472
11350.00000	96.55427	-355.81067	96.55427
11400.00000	96.14178	-357.58497	96.14178
11450.00000	95.86711	-359.60898	95.86711
11500.00000	95.71081	-360.42522	95.71081
11550.00000	95.34429	-361.54266	95.34429
11600.00000	95.19087	-363.28963	95.19087
11650.00000	94.91740	-363.07801	94.91740
11700.00000	94.72380	-363.64795	94.72380
11750.00000	94.56784	-364.46014	94.56784
11800.00000	94.35669	-365.68850	94.35669
11850.00000	94.26318	-365.46551	94.26318
11900.00000	93.96466	-366.69884	93.96466
11950.00000	93.85662	-367.10749	93.85662
12000.00000	93.62477	-367.23076	93.62477
12050.00000	93.42363	-367.89814	93.42363
12100.00000	93.32427	-369.70824	93.32427
12150.00000	93.16557	-370.54774	93.16557
12200.00000	93.12013	-371.96086	93.12013
12250.00000	93.00723	-372.48761	93.00723
12300.00000	94.08218	-373.67332	94.08218
12350.00000	92.80848	-374.40996	92.80848
12400.00000	92.66659	-374.55718	92.66659
12450.00000	92.51948	-374.81009	92.51948
12500.00000	92.31870	-376.21004	92.31870
12550.00000	92.19046	-377.33747	92.19046
12600.00000	91.92783	-379.16542	91.92783
12650.00000	92.00534	-380.32992	92.00534
12700.00000	91.79077	-381.33190	91.79077
12750.00000	91.64637	-382.44880	91.64637
12800.00000	91.45534	-383.19780	91.45534
12850.00000	90.94987	-383.86153	90.94987
12900.00000	90.82487	-384.83176	90.82487
12950.00000	90.62347	-385.58849	90.62347
13000.00000	90.34473	-386.82563	90.34473
13050.00000	90.23932	-386.05968	90.23932
13100.00000	89.96135	-386.68121	89.96135
13150.00000	89.76768	-387.43165	89.76768
13200.00000	89.56533	-386.22670	89.56533
13250.00000	89.41192	-385.50547	89.41192
13300.00000	89.13776	-383.08510	89.13776
13350.00000	88.91126	-383.69256	88.91126
13400.00000	89.01029	-383.15400	89.01029
13450.00000	88.76981	-381.62923	88.76981
13500.00000	88.70098	-379.32414	88.70098
13550.00000	88.58510	-379.52672	88.58510
13600.00000	88.64780	-378.05747	88.64780
13650.00000	88.66811	-376.29931	88.66811
13700.00000	88.48992	-375.67452	88.48992
13750.00000	88.39002	-375.48996	88.39002
13800.00000	88.44355	-375.99801	88.44355
13850.00000	88.39278	-376.74114	88.39278
13900.00000	88.48686	-376.06883	88.48686
13950.00000	88.78304	-374.85395	88.78304
14000.00000	89.09786	-372.56860	89.09786
14050.00000	89.16724	-371.02840	89.16724
14100.00000	89.21138	-369.98625	89.21138
14150.00000	89.35408	-368.89357	89.35408
14200.00000	89.59341	-368.89364	89.59341
14250.00000	90.14887	-367.55085	90.14887
14300.00000	90.46821	-367.01662	90.46821
14350.00000	90.67127	-364.66657	90.67127
14400.00000	90.50835	-365.35622	90.50835
14450.00000	90.80132	-363.31687	90.80132
14500.00000	91.07233	-363.86847	91.07233
14550.00000	91.42926	-363.13905	91.42926
14600.00000	91.64554	-364.64719	91.64554
14650.00000	92.30571	-362.97308	92.30571
14700.00000	92.56265	-366.35700	92.56265
14750.00000	93.04861	-365.84407	93.04861
14800.00000	93.22740	-365.50566	93.22740
14850.00000	93.81641	-365.50690	93.81641
14900.00000	94.27086	-366.67287	94.27086
14950.00000	94.70328	-367.67054	94.70328
15000.00000	95.18837	-368.37253	95.18837
15050.00000	95.40000	-367.50141	95.40000
15100.00000	95.80994	-368.09539	95.80994
15150.00000	96.41225	-370.13703	96.41225
15200.00000	96.68116	-369.89638	96.68116
15250.00000	96.95209	-372.17519	96.95209
15300.00000	97.65813	-374.64289	97.65813
15350.00000	97.99378	-376.54206	97.99378
15400.00000	98.33949	-377.36929	98.33949
15450.00000	98.77788	-379.56981	98.77788
15500.00000	99.29056	-381.42033	99.29056
15550.00000	99.67648	-383.78145	99.67648
15600.00000	100.08113	-386.26697	100.08113
15650.00000	100.64166	-387.31853	100.64166
15700.00000	100.85587	-391.28000	100.85587
15750.00000	101.36859	-393.72503	101.36859
15800.00000	101.75396	-395.49982	101.75396
15850.00000	102.06904	-398.12871	102.06904
15900.00000	102.27864	-401.78740	102.27864
15950.00000	102.73908	-404.66321	102.73908
16000.00000	103.04774	-407.60106	103.04774
16050.00000	103.43107	-410.71164	103.43107
16100.00000	103.57899	-414.16044	103.57899
16150.00000	103.79231	-417.25780	103.79231
16200.00000	104.03482	-421.25702	104.03482
16250.00000	104.28541	-424.30737	104.28541
16300.00000	104.66793	-427.72457	104.66793
16350.00000	104.82829	-431.01356	104.82829
16400.00000	105.01066	-433.90972	105.01066
16450.00000	105.18582	-437.03846	105.18582
16500.00000	105.26175	-440.50807	105.26175
16550.00000	105.54798	-444.39953	105.54798
16600.00000	105.71781	-447.36667	105.71781
16650.00000	105.80639	-450.59716	105.80639
16700.00000	106.00626	-453.40494	106.00626
16750.00000	106.01504	-456.96821	106.01504
16800.00000	106.18472	-460.43876	106.18472
16850.00000	106.36890	-463.69949	106.36890
16900.00000	106.49008	-467.02782	106.49008
16950.00000	106.59496	-470.21225	106.59496
17000.00000	106.58168	-473.33416	106.58168
17050.00000	106.71598	-475.84738	106.71598
17100.00000	106.66668	-478.08103	106.66668
17150.00000	106.95223	-481.97673	106.95223
17200.00000	107.03801	-484.95820	107.03801
17250.00000	107.06816	-488.50814	107.06816
17300.00000	107.22651	-491.42301	107.22651
17350.00000	107.17295	-494.23791	107.17295
17400.00000	107.34813	-497.20746	107.34813
17450.00000	107.34807	-500.83284	107.34807
17500.00000	107.45255	-503.99373	107.45255
17550.00000	107.53919	-506.94906	107.53919
17600.00000	107.68904	-509.78708	107.68904
17650.00000	107.74307	-513.69154	107.74307
17700.00000	107.73632	-517.54861	107.73632
17750.00000	107.92891	-519.59777	107.92891
17800.00000	107.88989	-523.53041	107.88989
17850.00000	107.94616	-526.33176	107.94616
17900.00000	107.94895	-529.78248	107.94895
17950.00000	108.06795	-533.27360	108.06795
18000.00000	108.05585	-537.05199	108.05585
18050.00000	108.20483	-540.06876	108.20483
18100.00000	108.13197	-543.89727	108.13197
18150.00000	108.13234	-546.78970	108.13234
18200.00000	108.06223	-550.70780	108.06223
18250.00000	108.11790	-553.17037	108.11790
18300.00000	108.24497	-556.59154	108.24497
18350.00000	108.11503	-559.87152	108.11503
18400.00000	108.03516	-563.43445	108.03516
18450.00000	107.95734	-568.00975	107.95734
18500.00000	107.92046	-571.00230	107.92046
18550.00000	107.83817	-573.77884	107.83817
18600.00000	107.88130	-577.54822	107.88130
18650.00000	107.63769	-580.46731	107.63769
18700.00000	107.56004	-584.18663	107.56004
18750.00000	107.53171	-587.06514	107.53171
18800.00000	107.53363	-589.66689	107.53363
18850.00000	107.30592	-593.00747	107.30592
18900.00000	107.11562	-595.77212	107.11562
18950.00000	107.09692	-599.32042	107.09692
19000.00000	106.84511	-601.66716	106.84511
19050.00000	106.86128	-604.66372	106.86128
19100.00000	106.70030	-607.17956	106.70030
19150.00000	106.73610	-609.78121	106.73610
19200.00000	106.58076	-612.09372	106.58076
19250.00000	106.47068	-615.72875	106.47068
19300.00000	106.32374	-617.76279	106.32374
19350.00000	106.23933	-620.40792	106.23933
19400.00000	106.10156	-622.82940	106.10156
19450.00000	106.08534	-624.77032	106.08534
19500.00000	106.00094	-628.12546	106.00094
19550.00000	105.86199	-630.62869	105.86199
19600.00000	105.84968	-633.71351	105.84968
19650.00000	105.69073	-635.62867	105.69073
19700.00000	105.49807	-638.29976	105.49807
19750.00000	105.40421	-640.29167	105.40421
19800.00000	105.37232	-643.53155	105.37232
19850.00000	105.32517	-645.85874	105.32517
19900.00000	105.16413	-649.01786	105.16413
19950.00000	105.03629	-651.36128	105.03629
20000.00000	104.98084	-653.89345	104.98084
20050.00000	104.84751	-656.41182	104.84751
20100.00000	104.68783	-659.23422	104.68783
20150.00000	104.61908	-660.53720	104.61908
20200.00000	104.46763	-663.76910	104.46763
20250.00000	104.29122	-666.06280	104.29122
20300.00000	104.08219	-668.46860	104.08219
20350.00000	104.02589	-670.99631	104.02589
20400.00000	103.81162	-672.33840	103.81162
20450.00000	103.59591	-674.78655	103.59591
20500.00000	103.49459	-677.21652	103.49459
20550.00000	103.10800	-678.47795	103.10800
20600.00000	103.04938	-680.08056	103.04938
20650.00000	102.85630	-681.88156	102.85630
20700.00000	102.65314	-683.65554	102.65314
20750.00000	102.53619	-684.65705	102.53619
20800.00000	102.34416	-685.76058	102.34416
20850.00000	102.25837	-686.96211	102.25837
20900.00000	102.06975	-687.94527	102.06975
20950.00000	101.97258	-688.34254	101.97258
21000.00000	101.87585	-689.14930	101.87585
21050.00000	101.98902	-689.53512	101.98902
21100.00000	101.94585	-690.03020	101.94585
21150.00000	102.04267	-691.03419	102.04267
21200.00000	102.15360	-691.69030	102.15360
21250.00000	102.22889	-693.90247	102.22889
21300.00000	102.39812	-694.83451	102.39812
21350.00000	102.47655	-695.98978	102.47655
21400.00000	102.60201	-698.11886	102.60201
21450.00000	102.71208	-700.10065	102.71208
21500.00000	102.82569	-702.49257	102.82569
21550.00000	102.82423	-704.42948	102.82423
21600.00000	102.98230	-707.02775	102.98230
21650.00000	102.96987	-709.46473	102.96987
21700.00000	102.99763	-711.83429	102.99763
21750.00000	103.03089	-714.22189	103.03089
21800.00000	103.01780	-716.87922	103.01780
21850.00000	102.97003	-718.97927	102.97003
21900.00000	102.96167	-721.70461	102.96167
21950.00000	102.93216	-723.76458	102.93216
22000.00000	102.92353	-726.00480	102.92353
22050.00000	102.86476	-728.23909	102.86476
22100.00000	102.77845	-730.63572	102.77845
22150.00000	102.73465	-732.80948	102.73465
22200.00000	102.73865	-734.86678	102.73865
22250.00000	102.60471	-736.88891	102.60471
22300.00000	102.44078	-739.00073	102.44078
22350.00000	102.52340	-741.61422	102.52340
22400.00000	102.47866	-744.17256	102.47866
22450.00000	102.28437	-746.22338	102.28437
22500.00000	102.17911	-747.21017	102.17911
22550.00000	102.07829	-749.97687	102.07829
22600.00000	101.98613	-753.00670	101.98613
22650.00000	101.89239	-754.75228	101.89239
22700.00000	101.75672	-756.76565	101.75672
22750.00000	101.59297	-757.08196	101.59297
22800.00000	101.45540	-761.73598	101.45540
22850.00000	101.39868	-763.84934	101.39868
22900.00000	101.26267	-764.15592	101.26267
22950.00000	101.18149	-765.56957	101.18149
23000.00000	100.92506	-767.38587	100.92506
23050.00000	100.74658	-769.40749	100.74658
23100.00000	100.58026	-770.40683	100.58026
23150.00000	100.43277	-770.83929	100.43277
23200.00000	100.35509	-773.22298	100.35509
23250.00000	100.07460	-775.66745	100.07460
23300.00000	100.22962	-777.10338	100.22962
23350.00000	99.80456	-777.98109	99.80456
23400.00000	99.74341	-779.32195	99.74341
23450.00000	99.68197	-780.89551	99.68197
23500.00000	99.37802	-780.86349	99.37802
23550.00000	99.30960	-780.73273	99.30960
23600.00000	99.26874	-783.55745	99.26874
23650.00000	99.16794	-784.16767	99.16794
23700.00000	99.23342	-786.06099	99.23342
23750.00000	99.06883	-787.17744	99.06883
23800.00000	98.82377	-785.48019	98.82377
23850.00000	98.80216	-785.83429	98.80216
23900.00000	99.29120	-787.63794	99.29120
23950.00000	98.85293	-789.66256	98.85293
24000.00000	98.66129	-791.46732	98.66129
24050.00000	98.91010	-790.14931	98.91010
24100.00000	99.19837	-792.24305	99.19837
24150.00000	99.11726	-792.83653	99.11726
24200.00000	99.22171	-796.13246	99.22171
24250.00000	98.87972	-794.58548	98.87972
24300.00000	99.15693	-798.02166	99.15693
24350.00000	99.06576	-797.89984	99.06576
24400.00000	99.25573	-800.40273	99.25573
24450.00000	98.91634	-800.97856	98.91634
24500.00000	99.59902	-801.05749	99.59902
24550.00000	99.30833	-804.64448	99.30833
24600.00000	99.91619	-804.82770	99.91619
24650.00000	99.54260	-807.83425	99.54260
24700.00000	99.80311	-448.41318	99.80311
24750.00000	99.81783	-450.38921	99.81783
24800.00000	99.98999	-91.71552	99.98999
24850.00000	99.68268	266.81146	99.68268
24900.00000	100.08173	626.20906	100.08173
24950.00000	100.22942	982.85443	100.22942
25000.00000	100.62968	976.20892	100.62968
25050.00000	100.58990	977.44308	100.58990
25100.00000	100.29561	974.99193	100.29561
25150.00000	100.71086	974.77233	100.71086
25200.00000	100.49278	970.38754	100.49278
25250.00000	100.76771	970.08580	100.76771
25300.00000	101.00466	969.22658	101.00466
25350.00000	100.96016	962.05789	100.96016
25400.00000	101.14046	959.76107	101.14046
25450.00000	101.33631	957.64315	101.33631
25500.00000	101.18623	954.99771	101.18623
25550.00000	101.29473	951.87131	101.29473
25600.00000	101.47091	949.77176	101.47091
25650.00000	101.43929	947.81841	101.43929
25700.00000	101.54088	944.84650	101.54088
25750.00000	101.38590	941.76484	101.38590
25800.00000	101.49260	938.27498	101.49260
25850.00000	101.42738	935.99147	101.42738
25900.00000	101.37553	931.91365	101.37553
25950.00000	101.22835	933.18697	101.22835
26000.00000	101.33213	928.92456	101.33213
26050.00000	101.33888	925.94710	101.33888
26100.00000	101.29413	924.21386	101.29413
26150.00000	101.16974	921.53601	101.16974
26200.00000	101.34794	919.07518	101.34794
26250.00000	101.24008	915.95624	101.24008
26300.00000	101.20954	913.78700	101.20954
26350.00000	100.89887	912.43716	100.89887
26400.00000	100.77084	910.55933	100.77084
26450.00000	101.19586	907.27714	101.19586
26500.00000	100.93271	904.90662	100.93271
26550.00000	100.90652	899.95943	100.90652
26600.00000	100.82309	898.44604	100.82309
26650.00000	100.93950	899.73851	100.93950
26700.00000	100.89347	896.20483	100.89347
26750.00000	100.62699	894.27113	100.62699
26800.00000	100.68690	889.12666	100.68690
26850.00000	100.78405	889.57707	100.78405
26900.00000	100.92997	888.14543	100.92997
26950.00000	100.97466	884.44768	100.97466
27000.00000	100.64404	884.71843	100.64404
27050.00000	100.80757	881.67756	100.80757
27100.00000	100.63671	881.04488	100.63671
27150.00000	100.65759	876.85918	100.65759
27200.00000	100.86241	876.45654	100.86241
27250.00000	100.50986	874.86506	100.50986
27300.00000	100.30930	872.87751	100.30930
27350.00000	100.68846	872.33938	100.68846
27400.00000	100.28790	869.56828	100.28790
27450.00000	100.48344	868.80475	100.48344
27500.00000	100.48303	866.95633	100.48303
27550.00000	100.60328	864.65498	100.60328
27600.00000	100.98701	861.95773	100.98701
27650.00000	100.46810	863.24501	100.46810
27700.00000	100.75068	857.46909	100.75068
27750.00000	100.78357	855.83645	100.78357
27800.00000	101.02986	852.59560	101.02986
27850.00000	101.28485	854.74853	101.28485
27900.00000	101.20520	852.83567	101.20520
27950.00000	100.53485	849.60881	100.53485
28000.00000	100.80421	849.09638	100.80421
28050.00000	101.51147	845.52397	101.51147
28100.00000	101.03619	843.88728	101.03619
28150.00000	101.21058	842.79434	101.21058
28200.00000	101.47221	837.63544	101.47221
28250.00000	101.28106	834.83291	101.28106
28300.00000	101.12726	835.06714	101.12726
28350.00000	101.44762	833.55439	101.44762
28400.00000	101.44323	832.56472	101.44323
28450.00000	102.02466	828.59801	102.02466
28500.00000	101.63129	827.05795	101.63129
28550.00000	101.59751	827.22058	101.59751
28600.00000	101.74177	824.65801	101.74177
28650.00000	102.02729	819.22773	102.02729
28700.00000	101.98448	819.54001	101.98448
28750.00000	102.59713	817.85946	102.59713
28800.00000	102.37371	815.23394	102.37371
28850.00000	101.80443	810.33860	101.80443
28900.00000	102.03920	808.37802	102.03920
28950.00000	101.99449	807.44927	101.99449
29000.00000	102.17388	804.55754	102.17388
29050.00000	101.89285	804.22325	101.89285
29100.00000	101.91187	802.23100	101.91187
29150.00000	101.70306	800.04615	101.70306
29200.00000	101.65168	796.79480	101.65168
29250.00000	101.93790	794.82943	101.93790
29300.00000	101.52941	792.69426	101.52941
29350.00000	101.95565	789.55254	101.95565
29400.00000	101.60276	788.06050	101.60276
29450.00000	101.57296	786.58742	101.57296
29500.00000	101.80982	785.44415	101.80982
29550.00000	101.40328	781.11575	101.40328
29600.00000	101.22285	780.53332	101.22285
29650.00000	101.27002	777.76999	101.27002
29700.00000	101.03316	777.92890	101.03316
29750.00000	100.90801	777.74713	100.90801
29800.00000	100.62296	774.72007	100.62296
29850.00000	100.65473	772.70936	100.65473
29900.00000	100.78503	773.46006	100.78503
29950.00000	99.92578	772.75357	99.92578
30000.00000	100.31553	773.49805	100.31553
30050.00000	100.22798	771.18055	100.22798
30100.00000	99.94968	772.05064	99.94968
30150.00000	99.99892	769.02065	99.99892
30200.00000	99.92893	768.28123	99.92893
30250.00000	99.70741	768.39635	99.70741
30300.00000	99.31115	769.11279	99.31115
30350.00000	99.51786	771.29651	99.51786
30400.00000	99.47223	769.41373	99.47223
30450.00000	99.14182	769.77884	99.14182
30500.00000	99.21367	769.10890	99.21367
30550.00000	99.12507	771.67272	99.12507
30600.00000	99.22847	772.71210	99.22847
30650.00000	99.30510	773.12578	99.30510
30700.00000	99.43198	773.40534	99.43198
30750.00000	99.36584	775.57326	99.36584
30800.00000	99.59121	776.17900	99.59121
30850.00000	99.86174	778.55945	99.86174
30900.00000	100.00218	780.59799	100.00218
30950.00000	100.42495	780.27179	100.42495
31000.00000	100.77417	780.73888	100.77417
31050.00000	101.28379	781.44847	101.28379
31100.00000	101.85263	782.61881	101.85263
31150.00000	102.01530	782.37463	102.01530
31200.00000	102.93373	781.71280	102.93373
31250.00000	103.35743	781.18002	103.35743
31300.00000	103.96144	780.24209	103.96144
31350.00000	104.54217	778.80471	104.54217
31400.00000	104.93945	776.14210	104.93945
31450.00000	105.60373	774.19097	105.60373
31500.00000	106.01969	770.60569	106.01969
31550.00000	106.58203	768.71230	106.58203
31600.00000	107.23340	764.16812	107.23340
31650.00000	107.58261	761.06749	107.58261
31700.00000	108.02671	758.06105	108.02671
31750.00000	108.52186	755.07652	108.52186
31800.00000	108.87821	750.37538	108.87821
31850.00000	109.26114	746.00677	109.26114
31900.00000	109.36790	742.10080	109.36790
31950.00000	109.75591	738.11875	109.75591
32000.00000	110.03191	733.67228	110.03191
32050.00000	110.27195	729.86368	110.27195
32100.00000	110.43931	725.11093	110.43931
32150.00000	110.66038	721.37237	110.66038
32200.00000	110.89233	716.21674	110.89233
32250.00000	110.96406	711.68586	110.96406
32300.00000	111.10260	707.71547	111.10260
32350.00000	111.15915	703.86173	111.15915
32400.00000	111.36592	699.75610	111.36592
32450.00000	111.35935	695.06292	111.35935
32500.00000	111.49308	691.16515	111.49308
32550.00000	111.56555	686.25423	111.56555
32600.00000	111.60914	682.45920	111.60914
32650.00000	111.69208	677.96670	111.69208
32700.00000	111.56282	673.39713	111.56282
32750.00000	111.64629	668.78217	111.64629
32800.00000	111.63996	665.31796	111.63996
32850.00000	111.65126	660.73205	111.65126
32900.00000	111.53090	655.82292	111.53090
32950.00000	111.37351	650.78371	111.37351
33000.00000	111.19505	648.74148	111.19505
33050.00000	111.09926	643.12568	111.09926
33100.00000	111.04708	639.28942	111.04708
33150.00000	110.84615	636.53765	110.84615
33200.00000	110.90997	633.20561	110.90997
33250.00000	110.55887	629.29549	110.55887
33300.00000	110.32069	625.12117	110.32069
33350.00000	110.09393	621.82056	110.09393
33400.00000	109.90590	619.13051	109.90590
33450.00000	109.76219	615.26797	109.76219
33500.00000	109.78139	614.03813	109.78139
33550.00000	109.25786	608.36250	109.25786
33600.00000	109.06249	607.44852	109.06249
33650.00000	108.93383	603.91144	108.93383
33700.00000	108.62289	600.97564	108.62289
33750.00000	108.25181	598.88231	108.25181
33800.00000	108.15408	596.92864	108.15408
33850.00000	107.70834	595.21660	107.70834
33900.00000	107.69589	593.06806	107.69589
33950.00000	107.40386	591.88681	107.40386
34000.00000	107.23615	589.10477	107.23615
34050.00000	106.96666	587.49671	106.96666
34100.00000	106.64912	587.30607	106.64912
34150.00000	106.63795	584.51418	106.63795
34200.00000	106.20100	586.00201	106.20100
34250.00000	106.17127	583.27143	106.17127
34300.00000	106.07652	581.67971	106.07652
34350.00000	105.93790	581.19071	105.93790
34400.00000	105.52435	582.96014	105.52435
34450.00000	105.65574	578.75327	105.65574
34500.00000	105.37043	578.93704	105.37043
34550.00000	105.39742	578.42414	105.39742
34600.00000	105.04687	577.27494	105.04687
34650.00000	105.31031	579.55730	105.31031
34700.00000	104.72622	579.88359	104.72622
34750.00000	105.17728	576.51196	105.17728
34800.00000	105.17994	578.74874	105.17994
34850.00000	105.34495	580.89753	105.34495
34900.00000	105.63419	578.07565	105.63419
34950.00000	105.48909	579.45152	105.48909
35000.00000	105.59910	578.08270	105.59910
35050.00000	105.89919	579.09807	105.89919
35100.00000	106.19385	578.03946	106.19385
35150.00000	106.02854	577.45231	106.02854
35200.00000	106.28600	575.99268	106.28600
35250.00000	106.47050	577.09810	106.47050
35300.00000	106.93471	575.59230	106.93471
35350.00000	107.15847	574.13274	107.15847
35400.00000	107.05915	572.55808	107.05915
35450.00000	107.58011	574.02210	107.58011
35500.00000	107.57673	572.33422	107.57673
35550.00000	108.05137	571.95579	108.05137
35600.00000	108.07772	570.57061	108.07772
35650.00000	108.56419	569.75233	108.56419
35700.00000	108.85643	568.06961	108.85643
35750.00000	108.78628	568.58254	108.78628
35800.00000	109.33477	568.10594	109.33477
35850.00000	109.66275	565.27470	109.66275
35900.00000	109.92135	563.60562	109.92135
35950.00000	110.21894	562.12717	110.21894
36000.00000	110.54688	560.58782	110.54688
36050.00000	110.83968	558.97285	110.83968
36100.00000	111.11530	557.51023	111.11530
36150.00000	111.34862	556.42477	111.34862
36200.00000	111.68632	554.49190	111.68632
36250.00000	111.81937	552.14763	111.81937
36300.00000	112.02508	550.79471	112.02508
36350.00000	112.46359	549.14999	112.46359
36400.00000	112.73529	546.98958	112.73529
36450.00000	112.86918	545.05158	112.86918
36500.00000	113.33456	544.18660	113.33456
36550.00000	113.57983	540.22448	113.57983
36600.00000	113.81864	538.50044	113.81864
36650.00000	114.16175	536.89396	114.16175
36700.00000	114.48313	534.07131	114.48313
36750.00000	114.73729	531.44193	114.73729
36800.00000	114.98400	529.29342	114.98400
36850.00000	115.11052	527.44683	115.11052
36900.00000	115.64437	524.81520	115.64437
36950.00000	115.68413	521.36347	115.68413
37000.00000	115.65751	519.60882	115.65751
37050.00000	115.96412	518.15768	115.96412
37100.00000	116.40263	514.24768	116.40263
37150.00000	116.77965	510.91134	116.77965
37200.00000	117.25789	508.81472	117.25789
37250.00000	117.08094	505.38541	117.08094
37300.00000	117.41945	502.21479	117.41945
37350.00000	117.91329	498.60709	117.91329
37400.00000	117.91416	496.13612	117.91416
37450.00000	118.01675	493.40578	118.01675
37500.00000	118.61694	489.17348	118.61694
37550.00000	118.53028	486.31576	118.53028
37600.00000	118.79257	482.55902	118.79257
37650.00000	119.00368	479.27481	119.00368
37700.00000	119.23818	474.47597	119.23818
37750.00000	119.39884	471.63100	119.39884
37800.00000	119.50715	466.91574	119.50715
37850.00000	119.63961	461.73339	119.63961
37900.00000	119.71747	458.46120	119.71747
37950.00000	119.91238	455.35130	119.91238
38000.00000	119.88148	451.65530	119.88148
38050.00000	120.08561	447.11725	120.08561
38100.00000	120.21575	443.05395	120.21575
38150.00000	120.26782	438.38044	120.26782
38200.00000	120.50980	434.02843	120.50980
38250.00000	120.52804	429.75313	120.52804
38300.00000	120.66852	424.80864	120.66852
38350.00000	120.61034	421.26460	120.61034
38400.00000	120.68229	416.96882	120.68229
38450.00000	120.78084	412.10271	120.78084
38500.00000	120.86680	407.45558	120.86680
38550.00000	120.96649	403.61555	120.96649
38600.00000	121.05346	399.14228	121.05346
38650.00000	121.11283	394.44031	121.11283
38700.00000	121.18277	389.80728	121.18277
38750.00000	121.22758	385.32696	121.22758
38800.00000	121.32650	380.68779	121.32650
38850.00000	121.36148	375.81125	121.36148
38900.00000	121.44057	370.95949	121.44057
38950.00000	121.45618	365.82385	121.45618
39000.00000	121.48631	360.76398	121.48631
39050.00000	121.53600	355.98917	121.53600
39100.00000	121.39126	350.90678	121.39126
39150.00000	121.38018	345.63684	121.38018
39200.00000	121.37398	340.84242	121.37398
39250.00000	121.32811	335.38268	121.32811
39300.00000	121.24554	329.91912	121.24554
39350.00000	121.14867	325.31627	121.14867
39400.00000	121.02746	319.99967	121.02746
39450.00000	120.85894	314.99407	120.85894
39500.00000	120.69381	309.95710	120.69381
39550.00000	120.45844	304.65017	120.45844
39600.00000	120.16298	299.97345	120.16298
39650.00000	119.98170	295.74379	119.98170
39700.00000	119.67876	291.09276	119.67876
39750.00000	119.43595	286.09421	119.43595
39800.00000	119.14482	282.11760	119.14482
39850.00000	118.79935	277.76222	118.79935
39900.00000	118.47102	274.04954	118.47102
39950.00000	118.18979	270.25929	118.18979
40000.00000	117.71901	267.91211	117.71901
40050.00000	117.49242	263.25224	117.49242
40100.00000	117.13806	259.89661	117.13806
40150.00000	116.80053	256.68263	116.80053
40200.00000	116.45393	253.74175	116.45393
40250.00000	116.10322	250.92323	116.10322
40300.00000	115.85063	248.47331	115.85063
40350.00000	115.31754	245.86572	115.31754
40400.00000	114.94957	243.72484	114.94957
40450.00000	114.71821	241.69862	114.71821
40500.00000	114.44751	239.90765	114.44751
40550.00000	114.14599	237.18179	114.14599
40600.00000	113.84250	236.23029	113.84250
40650.00000	113.51178	234.54529	113.51178
40700.00000	113.04776	233.97943	113.04776
40750.00000	113.01466	232.27839	113.01466
40800.00000	112.61606	231.10546	112.61606
40850.00000	112.38165	230.44901	112.38165
40900.00000	112.08511	228.99432	112.08511
40950.00000	111.80073	229.06511	111.80073
41000.00000	111.40556	229.16376	111.40556
41050.00000	111.38092	228.63527	111.38092
41100.00000	111.28374	227.61747	111.28374
41150.00000	111.30541	228.99145	111.30541
41200.00000	111.14397	228.51178	111.14397
41250.00000	110.94103	226.40641	110.94103
41300.00000	110.59955	227.78142	110.59955
41350.00000	110.71280	228.96379	110.71280
41400.00000	110.65370	224.03459	110.65370
41450.00000	110.80770	226.91097	110.80770
41500.00000	110.63253	226.96432	110.63253
41550.00000	110.47800	231.08098	110.47800
41600.00000	110.15524	228.58396	110.15524
41650.00000	110.58721	227.30618	110.58721
41700.00000	110.75593	227.96192	110.75593
41750.00000	110.51717	232.74474	110.51717
41800.00000	109.85049	227.39144	109.85049
41850.00000	109.81891	229.14586	109.81891
41900.00000	109.84171	229.29842	109.84171
41950.00000	111.11694	233.72322	111.11694
42000.00000	110.34070	228.15009	110.34070
42050.00000	109.29899	228.04216	109.29899
42100.00000	109.82541	227.44763	109.82541
42150.00000	109.44069	222.19020	109.44069
42200.00000	109.48517	230.36622	109.48517
42250.00000	109.75563	228.79893	109.75563
42300.00000	108.79603	224.75205	108.79603
42350.00000	109.39243	225.72819	109.39243
42400.00000	109.20146	226.57680	109.20146
42450.00000	109.82334	220.34135	109.82334
42500.00000	109.22347	220.16131	109.22347
42550.00000	109.30085	230.23572	109.30085
42600.00000	108.86705	220.42678	108.86705
42650.00000	108.86982	222.06164	108.86982
42700.00000	108.57169	219.96841	108.57169
42750.00000	109.61201	217.60245	109.61201
42800.00000	109.10663	209.23528	109.10663
42850.00000	108.79801	206.96030	108.79801
42900.00000	109.73129	210.66982	109.73129
42950.00000	108.86637	207.39177	108.86637
43000.00000	109.67864	196.01465	109.67864
43050.00000	109.13770	194.24036	109.13770
43100.00000	109.49455	197.00943	109.49455
43150.00000	109.01493	187.67812	109.01493
43200.00000	109.03013	186.20540	109.03013
43250.00000	109.23339	182.60753	109.23339
43300.00000	109.42397	178.73652	109.42397
43350.00000	110.02302	175.12631	110.02302
43400.00000	109.39435	171.90453	109.39435
43450.00000	110.13154	170.83527	110.13154
43500.00000	109.03514	161.25739	109.03514
43550.00000	109.81669	158.14775	109.81669
43600.00000	109.39400	153.06406	109.39400
43650.00000	109.94459	144.73798	109.94459
43700.00000	109.47749	143.73954	109.47749
43750.00000	109.20639	141.53402	109.20639
43800.00000	109.65808	135.05632	109.65808
43850.00000	110.05080	128.49005	110.05080
43900.00000	110.37477	125.47584	110.37477
43950.00000	110.45402	120.44220	110.45402
44000.00000	109.88327	115.01541	109.88327
44050.00000	110.34837	110.37928	110.34837
44100.00000	110.45537	98.42602	110.45537
44150.00000	110.18163	99.90195	110.18163
44200.00000	110.00186	99.12581	110.00186
44250.00000	110.30950	91.27262	110.30950
44300.00000	110.60161	84.67175	110.60161
44350.00000	109.49344	79.61596	109.49344
44400.00000	110.48128	78.12751	110.48128
44450.00000	110.70088	73.44576	110.70088
44500.00000	110.14460	69.41110	110.14460
44550.00000	111.62866	58.69316	111.62866
44600.00000	110.29411	60.58453	110.29411
44650.00000	109.80139	50.94695	109.80139
44700.00000	109.76681	48.35385	109.76681
44750.00000	109.83365	47.14178	109.83365
44800.00000	110.60731	41.92203	110.60731
44850.00000	109.92601	34.00202	109.92601
44900.00000	109.75613	33.55480	109.75613
44950.00000	109.75139	26.26054	109.75139
45000.00000	109.62060	18.83431	109.62060
45050.00000	108.52212	22.44178	108.52212
45100.00000	108.69308	14.36995	108.69308
45150.00000	108.85770	 3.48464	108.85770
45200.00000	108.32116	 7.07929	108.32116
45250.00000	108.26575	 2.94091	108.26575
45300.00000	107.98929	-2.32752	107.98929
45350.00000	107.30190	-10.14504	107.30190
45400.00000	107.09535	-10.01522	107.09535
45450.00000	107.36804	-15.78184	107.36804
45500.00000	105.95428	-22.45605	105.95428
45550.00000	105.98372	-19.77482	105.98372
45600.00000	107.12079	-28.21970	107.12079
45650.00000	105.15207	-34.59319	105.15207
45700.00000	104.89366	-35.89145	104.89366
45750.00000	105.64502	-33.73690	105.64502
45800.00000	104.35235	-42.39691	104.35235
45850.00000	104.26648	-44.25938	104.26648
45900.00000	103.72606	-43.23142	103.72606
45950.00000	103.30658	-43.28551	103.30658
46000.00000	101.82841	-61.81927	101.82841
46050.00000	102.08950	-60.57671	102.08950
46100.00000	100.98944	-54.86533	100.98944
46150.00000	101.05462	-55.46593	101.05462
46200.00000	98.78496	-63.65215	98.78496
46250.00000	100.01722	-65.85343	100.01722
46300.00000	98.72394	-62.68419	98.72394
46350.00000	99.95341	-71.76362	99.95341
46400.00000	98.01954	-73.63461	98.01954
46450.00000	96.54211	-73.32090	96.54211
46500.00000	97.51761	-76.82188	97.51761
46550.00000	96.70815	-63.32414	96.70815
46600.00000	97.41004	-62.53919	97.41004
46650.00000	94.22840	-66.70446	94.22840
46700.00000	94.39448	-60.69081	94.39448
46750.00000	95.59177	-47.04422	95.59177
46800.00000	93.34496	-60.62175	93.34496
46850.00000	94.59645	-404.55430	94.59645
46900.00000	94.90681	-410.85935	94.90681
46950.00000	95.69264	-411.21392	95.69264
47000.00000	94.97635	-406.23206	94.97635
47050.00000	97.54646	-413.36517	97.54646
47100.00000	94.94653	-416.95402	94.94653
47150.00000	96.30757	-414.17026	96.30757
47200.00000	94.76386	-415.33684	94.76386
47250.00000	97.34530	-413.15373	97.34530
47300.00000	96.40897	-424.87651	96.40897
47350.00000	96.21854	-775.03858	96.21854
47400.00000	95.95258	-776.82157	95.95258
47450.00000	97.19556	-777.44600	97.19556
47500.00000	95.49985	-788.83283	95.49985
47550.00000	94.75378	-1138.57203	94.75378
47600.00000	95.01579	-1143.22934	95.01579
47650.00000	97.24483	-1149.99373	97.24483
47700.00000	95.82102	-1147.65475	95.82102
47750.00000	93.98911	-1147.34213	93.98911
47800.00000	95.62906	-1164.01636	95.62906
47850.00000	95.70993	-1512.20011	95.70993
47900.00000	96.05172	-1865.87385	96.05172
47950.00000	95.39072	-1866.24914	95.39072
48000.00000	95.05593	-1863.67686	95.05593
48050.00000	96.08107	-1873.43309	96.08107
48100.00000	94.85410	-1877.12435	94.85410
48150.00000	95.78320	-2233.19136	95.78320
48200.00000	96.10121	-2228.60457	96.10121
48250.00000	95.55794	-2235.10129	95.55794
48300.00000	96.09091	-2239.54004	96.09091
48350.00000	95.65813	-2244.86267	95.65813
48400.00000	96.96111	-2587.57166	96.96111
48450.00000	97.16298	-2595.61834	97.16298
48500.00000	96.22707	-2600.02915	96.22707
48550.00000	95.59719	-2606.83543	95.59719
48600.00000	97.60508	-2961.62591	97.60508
48650.00000	97.72553	-2963.34339	97.72553
48700.00000	98.21195	-2974.03198	98.21195
48750.00000	96.30878	-3325.84564	96.30878
48800.00000	97.60178	-3333.20854	97.60178
48850.00000	97.33342	-3337.55558	97.33342
48900.00000	96.61977	-3697.84936	96.61977
48950.00000	97.41438	-3712.12084	97.41438
49000.00000	97.61054	-3715.50064	97.61054
49050.00000	97.38786	-3714.21811	97.38786
49100.00000	96.68635	-4075.45789	96.68635
49150.00000	97.55487	-4436.60154	97.55487
49200.00000	97.32146	-4448.25941	97.32146
49250.00000	96.68186	-4798.24117	96.68186
49300.00000	97.41672	-4456.82994	97.41672
49350.00000	94.15877	-4444.14706	94.15877
49400.00000	94.94921	-4099.10016	94.94921
49450.00000	93.64745	-3747.63436	93.64745
49500.00000	93.77215	-3398.00774	93.77215
49550.00000	93.58597	-3048.15183	93.58597
49600.00000	92.84952	-3043.18328	92.84952
49650.00000	92.62896	-3036.02065	92.62896
49700.00000	90.97630	-2716.96751	90.97630
49750.00000	91.16982	-2716.79153	91.16982
49800.00000	89.71624	-2702.71867	89.71624
49850.00000	86.33987	-2705.01302	86.33987
49900.00000	84.85825	-2369.62005	84.85825
49950.00000	77.56165	-2088.79183	77.56165
