---ACOUSTIC CALIBRATION---
Filename: C:\Data\AZH DATA\AZH51\RightPrimary.calib
Date: 8/27/2019 11:13:08 AM
Format: 4
Probe Tube Correction File: C:\Data\Probe Tube Calibrations\50_ProbeTube.calib
Experiment VIs: 850
EPL_CFTS.exe V12.0.1 (2012)
DAQmx V9.6

Attenuation (dB): 40.000000
Min Freq (Hz): 50.000000
Max Freq (Hz): 49950.000000
Freq Step (Hz): 50.000000
Sample Rate (Hz): 100000.000000
[Smoothing]
Method=None
MA.Iterations=0
MA.Length=0
Loess.Length=0
Loess.Type=Linear
Loess.Robust=FALSE


Freq(Hz)	Mag(dB)	Phase(deg)	Unsmoothed(dB)

50.00000	97.46961	385.04522	97.46961
100.00000	87.77112	235.94433	87.77112
150.00000	77.44075	145.15817	77.44075
200.00000	82.15803	87.96523	82.15803
250.00000	91.51957	105.29547	91.51957
300.00000	89.96927	37.16070	89.96927
350.00000	79.69505	66.66990	79.69505
400.00000	84.24043	15.10832	84.24043
450.00000	86.21627	-11.85230	86.21627
500.00000	86.47659	21.50409	86.47659
550.00000	91.88082	 9.39866	91.88082
600.00000	93.78459	-2.12097	93.78459
650.00000	96.81909	-12.14575	96.81909
700.00000	99.73160	-26.65152	99.73160
750.00000	101.51554	-46.10135	101.51554
800.00000	102.16499	-70.24775	102.16499
850.00000	101.48830	-87.11109	101.48830
900.00000	99.50284	-103.09740	99.50284
950.00000	97.88791	-102.21914	97.88791
1000.00000	96.15848	-98.40826	96.15848
1050.00000	94.82720	-80.21613	94.82720
1100.00000	97.36083	-60.05119	97.36083
1150.00000	100.33280	-59.39649	100.33280
1200.00000	102.87818	-61.43589	102.87818
1250.00000	104.51735	-70.52171	104.51735
1300.00000	106.07272	-75.46176	106.07272
1350.00000	107.38568	-85.26195	107.38568
1400.00000	108.20337	-92.04880	108.20337
1450.00000	109.21813	-98.93518	109.21813
1500.00000	110.34521	-106.10098	110.34521
1550.00000	111.20356	-115.08066	111.20356
1600.00000	112.58939	-125.26195	112.58939
1650.00000	113.44994	-141.85943	113.44994
1700.00000	112.16373	-151.58474	112.16373
1750.00000	111.80314	-156.44698	111.80314
1800.00000	111.58928	-159.90962	111.58928
1850.00000	111.95520	-160.32113	111.95520
1900.00000	113.25882	-165.91263	113.25882
1950.00000	113.71227	-180.31991	113.71227
2000.00000	112.55040	-191.33931	112.55040
2050.00000	111.49116	-185.03956	111.49116
2100.00000	113.42584	-187.54111	113.42584
2150.00000	113.88313	-199.25822	113.88313
2200.00000	113.72916	-208.73458	113.72916
2250.00000	113.05609	-215.63689	113.05609
2300.00000	113.10572	-220.98908	113.10572
2350.00000	112.79508	-227.33784	112.79508
2400.00000	112.44234	-232.72687	112.44234
2450.00000	112.10270	-239.05898	112.10270
2500.00000	111.57974	-243.95695	111.57974
2550.00000	111.05451	-248.93301	111.05451
2600.00000	110.36826	-253.07117	110.36826
2650.00000	109.70144	-256.47652	109.70144
2700.00000	108.97595	-259.74274	108.97595
2750.00000	108.03245	-262.06442	108.03245
2800.00000	106.96779	-262.79676	106.96779
2850.00000	105.95253	-262.28209	105.95253
2900.00000	104.76587	-260.03231	104.76587
2950.00000	103.52181	-253.64955	103.52181
3000.00000	102.45667	-243.59777	102.45667
3050.00000	102.11921	-227.69276	102.11921
3100.00000	103.37895	-210.69992	103.37895
3150.00000	105.53698	-201.36811	105.53698
3200.00000	107.65171	-198.14338	107.65171
3250.00000	109.57123	-198.10850	109.57123
3300.00000	111.26804	-199.67180	111.26804
3350.00000	112.91699	-202.22462	112.91699
3400.00000	114.60303	-205.03135	114.60303
3450.00000	116.28151	-210.59083	116.28151
3500.00000	117.90606	-218.51989	117.90606
3550.00000	119.02660	-228.41198	119.02660
3600.00000	119.98328	-237.50841	119.98328
3650.00000	120.66463	-247.56764	120.66463
3700.00000	121.12077	-257.00436	121.12077
3750.00000	121.40942	-265.97392	121.40942
3800.00000	121.53550	-274.05417	121.53550
3850.00000	121.55959	-280.66104	121.55959
3900.00000	121.73416	-285.95561	121.73416
3950.00000	122.08832	-291.44233	122.08832
4000.00000	122.47822	-297.58976	122.47822
4050.00000	122.86490	-304.17094	122.86490
4100.00000	123.24831	-311.25567	123.24831
4150.00000	123.74064	-319.04201	123.74064
4200.00000	123.87139	-327.66400	123.87139
4250.00000	123.99307	-336.42605	123.99307
4300.00000	123.98300	-345.01834	123.98300
4350.00000	123.84069	-353.53903	123.84069
4400.00000	123.61223	-361.38324	123.61223
4450.00000	123.34866	-368.75893	123.34866
4500.00000	123.08641	-375.83929	123.08641
4550.00000	122.81993	-382.88237	122.81993
4600.00000	122.49212	-389.97052	122.49212
4650.00000	122.17440	-397.03033	122.17440
4700.00000	121.75995	-404.64492	121.75995
4750.00000	121.17066	-412.38968	121.17066
4800.00000	120.36447	-419.73853	120.36447
4850.00000	119.34846	-425.69843	119.34846
4900.00000	118.25733	-429.59220	118.25733
4950.00000	117.21446	-431.41919	117.21446
5000.00000	116.37329	-431.76502	116.37329
5050.00000	115.67290	-431.81829	115.67290
5100.00000	115.06144	-428.54348	115.06144
5150.00000	115.45731	-427.16810	115.45731
5200.00000	115.81547	-428.57664	115.81547
5250.00000	115.89942	-435.16886	115.89942
5300.00000	115.24986	-439.38438	115.24986
5350.00000	114.69618	-440.41996	114.69618
5400.00000	114.39328	-440.78338	114.39328
5450.00000	114.22054	-441.23732	114.22054
5500.00000	114.12962	-441.83864	114.12962
5550.00000	114.13533	-442.44249	114.13533
5600.00000	114.23528	-443.44617	114.23528
5650.00000	114.42958	-444.94882	114.42958
5700.00000	114.63563	-447.49912	114.63563
5750.00000	114.80762	-450.62972	114.80762
5800.00000	114.87768	-454.30637	114.87768
5850.00000	114.89195	-457.99238	114.89195
5900.00000	114.85112	-461.45948	114.85112
5950.00000	114.79152	-464.87759	114.79152
6000.00000	114.72267	-467.90825	114.72267
6050.00000	114.62387	-471.01294	114.62387
6100.00000	114.54958	-474.05435	114.54958
6150.00000	114.47104	-476.99129	114.47104
6200.00000	114.36501	-479.84123	114.36501
6250.00000	114.28091	-482.67791	114.28091
6300.00000	114.21505	-485.54722	114.21505
6350.00000	114.12071	-488.52573	114.12071
6400.00000	114.03050	-491.11391	114.03050
6450.00000	113.99110	-493.94146	113.99110
6500.00000	113.90905	-496.74979	113.90905
6550.00000	113.83409	-499.58061	113.83409
6600.00000	113.78098	-502.36813	113.78098
6650.00000	113.73469	-505.04920	113.73469
6700.00000	113.69908	-507.97156	113.69908
6750.00000	113.66614	-510.77821	113.66614
6800.00000	113.66790	-513.62485	113.66790
6850.00000	113.65541	-516.53897	113.65541
6900.00000	113.65928	-519.45590	113.65928
6950.00000	113.66594	-522.40435	113.66594
7000.00000	113.68779	-525.55772	113.68779
7050.00000	113.69312	-528.88194	113.69312
7100.00000	113.73257	-532.25453	113.73257
7150.00000	113.76246	-535.70169	113.76246
7200.00000	113.76750	-539.37836	113.76750
7250.00000	113.75546	-543.21281	113.75546
7300.00000	113.77939	-547.17531	113.77939
7350.00000	113.74630	-551.20893	113.74630
7400.00000	113.71675	-555.52811	113.71675
7450.00000	113.64436	-559.97817	113.64436
7500.00000	113.56505	-564.42567	113.56505
7550.00000	113.45529	-569.02372	113.45529
7600.00000	113.29987	-573.60786	113.29987
7650.00000	113.13035	-578.24165	113.13035
7700.00000	112.96090	-583.04732	112.96090
7750.00000	112.69215	-587.89962	112.69215
7800.00000	112.40574	-592.60919	112.40574
7850.00000	112.08908	-597.15562	112.08908
7900.00000	111.76696	-601.49685	111.76696
7950.00000	111.40686	-605.89612	111.40686
8000.00000	111.03465	-610.08821	111.03465
8050.00000	110.63222	-614.32131	110.63222
8100.00000	110.23571	-617.45703	110.23571
8150.00000	109.75133	-620.93339	109.75133
8200.00000	109.29590	-623.87346	109.29590
8250.00000	108.79710	-626.91540	108.79710
8300.00000	108.31067	-629.64119	108.31067
8350.00000	107.78827	-632.04657	107.78827
8400.00000	107.24650	-634.93334	107.24650
8450.00000	106.66679	-637.54345	106.66679
8500.00000	106.12794	-640.16374	106.12794
8550.00000	105.66092	-642.52272	105.66092
8600.00000	105.19257	-645.21863	105.19257
8650.00000	104.74360	-647.44005	104.74360
8700.00000	104.38862	-649.93432	104.38862
8750.00000	103.98949	-650.76331	103.98949
8800.00000	103.66282	-652.43231	103.66282
8850.00000	103.31461	-653.62180	103.31461
8900.00000	102.96960	-654.28743	102.96960
8950.00000	102.60184	-655.20075	102.60184
9000.00000	102.12251	-656.10277	102.12251
9050.00000	101.71077	-657.28179	101.71077
9100.00000	101.23897	-658.40097	101.23897
9150.00000	100.80859	-659.86225	100.80859
9200.00000	100.46118	-661.80079	100.46118
9250.00000	100.06543	-663.57810	100.06543
9300.00000	99.86885	-665.35096	99.86885
9350.00000	99.72945	-667.02054	99.72945
9400.00000	99.50244	-667.69683	99.50244
9450.00000	99.42263	-667.95803	99.42263
9500.00000	99.39192	-667.32116	99.39192
9550.00000	99.36061	-667.16690	99.36061
9600.00000	99.25598	-667.65491	99.25598
9650.00000	98.98559	-668.23258	98.98559
9700.00000	98.69540	-668.34448	98.69540
9750.00000	98.45843	-669.99888	98.45843
9800.00000	98.12251	-671.13828	98.12251
9850.00000	97.89694	-672.56952	97.89694
9900.00000	97.61992	-674.55540	97.61992
9950.00000	97.51454	-675.73420	97.51454
10000.00000	97.47243	-677.49686	97.47243
10050.00000	97.38817	-678.33175	97.38817
10100.00000	97.28256	-678.79482	97.28256
10150.00000	97.08074	-679.74348	97.08074
10200.00000	96.92103	-680.17740	96.92103
10250.00000	96.67342	-681.29537	96.67342
10300.00000	96.53040	-682.58897	96.53040
10350.00000	96.26710	-684.04405	96.26710
10400.00000	96.03197	-686.00022	96.03197
10450.00000	96.00066	-688.33242	96.00066
10500.00000	96.01598	-690.30336	96.01598
10550.00000	96.01209	-692.08309	96.01209
10600.00000	95.99526	-693.42572	95.99526
10650.00000	95.93220	-694.14436	95.93220
10700.00000	95.87728	-696.08558	95.87728
10750.00000	95.78858	-697.48739	95.78858
10800.00000	95.59494	-698.70939	95.59494
10850.00000	95.41534	-701.57030	95.41534
10900.00000	95.24392	-703.42573	95.24392
10950.00000	95.10469	-705.32533	95.10469
11000.00000	94.97399	-707.59822	94.97399
11050.00000	94.69889	-709.79973	94.69889
11100.00000	94.54827	-712.14937	94.54827
11150.00000	94.25028	-713.82368	94.25028
11200.00000	94.07961	-715.42995	94.07961
11250.00000	93.74425	-717.53981	93.74425
11300.00000	93.33417	-719.65273	93.33417
11350.00000	92.97082	-721.09825	92.97082
11400.00000	92.52568	-723.14226	92.52568
11450.00000	92.20374	-725.37863	92.20374
11500.00000	91.97339	-726.08252	91.97339
11550.00000	91.55098	-726.94524	91.55098
11600.00000	91.31517	-728.41746	91.31517
11650.00000	90.94370	-728.00748	90.94370
11700.00000	90.62270	-728.44219	90.62270
11750.00000	90.34083	-728.98499	90.34083
11800.00000	90.03561	-729.75869	90.03561
11850.00000	89.85253	-728.94320	89.85253
11900.00000	89.46049	-729.26352	89.46049
11950.00000	89.23057	-728.90717	89.23057
12000.00000	88.95612	-727.91412	88.95612
12050.00000	88.63013	-727.37635	88.63013
12100.00000	88.40840	-727.85232	88.40840
12150.00000	88.21305	-728.03318	88.21305
12200.00000	88.19238	-728.44960	88.19238
12250.00000	88.06793	-728.02256	88.06793
12300.00000	89.21851	-728.02703	89.21851
12350.00000	88.07976	-727.26371	88.07976
12400.00000	87.99449	-725.94727	87.99449
12450.00000	87.82266	-724.79264	87.82266
12500.00000	87.71836	-725.55723	87.71836
12550.00000	87.63318	-725.79497	87.63318
12600.00000	87.47940	-727.10024	87.47940
12650.00000	87.68500	-727.92168	87.68500
12700.00000	87.68709	-728.41893	87.68709
12750.00000	87.74190	-728.47953	87.74190
12800.00000	87.67083	-728.19854	87.67083
12850.00000	87.23439	-727.81388	87.23439
12900.00000	87.15438	-729.03929	87.15438
12950.00000	87.09702	-730.06821	87.09702
13000.00000	86.88474	-731.62715	86.88474
13050.00000	86.89356	-731.56384	86.89356
13100.00000	86.74558	-732.39228	86.74558
13150.00000	86.82552	-733.26685	86.82552
13200.00000	86.73000	-732.16637	86.73000
13250.00000	86.60272	-732.00402	86.60272
13300.00000	86.34986	-729.76554	86.34986
13350.00000	86.16765	-730.23035	86.16765
13400.00000	86.12991	-730.65117	86.12991
13450.00000	85.80719	-730.40425	85.80719
13500.00000	85.94633	-729.16875	85.94633
13550.00000	85.79403	-729.45383	85.79403
13600.00000	85.91993	-727.88865	85.91993
13650.00000	85.74251	-727.33903	85.74251
13700.00000	85.45326	-725.46991	85.45326
13750.00000	85.33508	-724.60854	85.33508
13800.00000	85.03934	-726.02887	85.03934
13850.00000	85.02916	-727.62226	85.02916
13900.00000	85.10586	-726.28569	85.10586
13950.00000	85.40678	-724.79262	85.40678
14000.00000	85.67356	-720.83727	85.67356
14050.00000	85.86275	-718.84489	85.86275
14100.00000	85.61793	-717.41340	85.61793
14150.00000	85.54898	-715.93859	85.54898
14200.00000	85.64285	-716.64778	85.64285
14250.00000	86.22199	-714.58934	86.22199
14300.00000	86.55516	-713.93846	86.55516
14350.00000	86.83800	-710.43817	86.83800
14400.00000	86.74714	-708.64566	86.74714
14450.00000	86.87428	-706.06671	86.87428
14500.00000	86.99766	-705.60787	86.99766
14550.00000	87.45931	-704.81536	87.45931
14600.00000	87.65315	-705.93277	87.65315
14650.00000	88.24040	-703.36378	88.24040
14700.00000	88.69800	-706.36104	88.69800
14750.00000	89.17269	-704.68897	89.17269
14800.00000	89.49572	-703.05827	89.49572
14850.00000	89.83850	-701.98921	89.83850
14900.00000	90.27200	-702.02067	90.27200
14950.00000	90.77029	-701.94172	90.77029
15000.00000	91.29617	-702.77258	91.29617
15050.00000	91.80081	-701.95860	91.80081
15100.00000	92.44533	-700.98130	92.44533
15150.00000	93.04413	-701.36399	93.04413
15200.00000	93.35942	-700.11788	93.35942
15250.00000	93.67257	-701.61347	93.67257
15300.00000	94.33945	-703.34125	94.33945
15350.00000	94.82232	-706.21267	94.82232
15400.00000	95.43182	-706.02174	95.43182
15450.00000	95.98459	-707.41989	95.98459
15500.00000	96.57887	-708.49778	96.57887
15550.00000	97.08225	-710.37469	97.08225
15600.00000	97.56771	-712.24265	97.56771
15650.00000	98.21149	-712.84422	98.21149
15700.00000	98.60784	-716.89278	98.60784
15750.00000	99.26278	-718.66818	99.26278
15800.00000	99.79048	-720.44951	99.79048
15850.00000	100.27349	-722.03679	100.27349
15900.00000	100.69732	-725.21987	100.69732
15950.00000	101.19585	-728.30785	101.19585
16000.00000	101.65623	-731.04932	101.65623
16050.00000	102.21300	-733.99934	102.21300
16100.00000	102.57168	-737.59671	102.57168
16150.00000	102.97335	-740.54941	102.97335
16200.00000	103.38886	-744.34221	103.38886
16250.00000	103.77465	-747.63240	103.77465
16300.00000	104.32671	-751.35264	104.32671
16350.00000	104.64877	-755.05744	104.64877
16400.00000	104.98230	-758.35004	104.98230
16450.00000	105.33442	-761.83350	105.33442
16500.00000	105.58527	-765.85946	105.58527
16550.00000	105.90876	-770.14417	105.90876
16600.00000	106.17897	-773.89368	106.17897
16650.00000	106.35866	-777.58546	106.35866
16700.00000	106.64112	-781.37363	106.64112
16750.00000	106.75192	-785.44448	106.75192
16800.00000	106.96320	-789.50896	106.96320
16850.00000	107.21667	-793.28401	107.21667
16900.00000	107.38874	-797.30347	107.38874
16950.00000	107.53688	-801.01920	107.53688
17000.00000	107.56237	-804.85252	107.56237
17050.00000	107.74222	-807.84060	107.74222
17100.00000	107.76549	-810.49157	107.76549
17150.00000	108.00798	-814.86964	108.00798
17200.00000	108.10252	-818.18667	108.10252
17250.00000	108.14523	-822.15777	108.14523
17300.00000	108.32697	-825.57700	108.32697
17350.00000	108.30160	-828.64284	108.30160
17400.00000	108.44822	-832.01442	108.44822
17450.00000	108.46537	-835.86557	108.46537
17500.00000	108.56621	-839.14770	108.56621
17550.00000	108.65001	-842.44746	108.65001
17600.00000	108.80235	-845.43459	108.80235
17650.00000	108.84312	-849.60375	108.84312
17700.00000	108.86969	-852.92837	108.86969
17750.00000	109.04473	-855.57237	109.04473
17800.00000	108.99391	-859.56588	108.99391
17850.00000	109.06675	-862.40366	109.06675
17900.00000	109.09927	-865.86474	109.09927
17950.00000	109.22914	-869.42445	109.22914
18000.00000	109.26288	-873.23041	109.26288
18050.00000	109.41699	-876.15289	109.41699
18100.00000	109.38784	-879.99427	109.38784
18150.00000	109.41034	-882.75960	109.41034
18200.00000	109.39411	-886.81038	109.39411
18250.00000	109.48529	-889.51734	109.48529
18300.00000	109.56585	-892.99528	109.56585
18350.00000	109.58079	-896.37054	109.58079
18400.00000	109.54535	-900.09156	109.54535
18450.00000	109.50408	-904.70416	109.50408
18500.00000	109.52379	-908.03229	109.52379
18550.00000	109.50830	-911.05163	109.50830
18600.00000	109.57575	-914.98371	109.57575
18650.00000	109.40813	-918.19514	109.40813
18700.00000	109.34516	-922.16447	109.34516
18750.00000	109.35308	-925.45052	109.35308
18800.00000	109.39686	-928.37860	109.39686
18850.00000	109.21444	-931.99240	109.21444
18900.00000	109.10699	-935.30583	109.10699
18950.00000	109.07163	-939.02177	109.07163
19000.00000	108.82470	-941.82354	108.82470
19050.00000	108.86980	-945.15038	108.86980
19100.00000	108.72239	-948.19224	108.72239
19150.00000	108.74970	-951.13867	108.74970
19200.00000	108.61556	-953.87233	108.61556
19250.00000	108.49965	-957.97369	108.49965
19300.00000	108.32680	-960.26680	108.32680
19350.00000	108.24587	-963.36456	108.24587
19400.00000	108.09883	-966.07406	108.09883
19450.00000	108.08337	-968.42815	108.08337
19500.00000	107.89184	-972.14647	107.89184
19550.00000	107.81151	-974.75635	107.81151
19600.00000	107.76657	-978.18436	107.76657
19650.00000	107.58984	-980.42921	107.58984
19700.00000	107.39312	-983.41901	107.39312
19750.00000	107.26597	-985.54196	107.26597
19800.00000	107.22599	-989.06387	107.22599
19850.00000	107.13406	-991.47451	107.13406
19900.00000	106.97200	-994.96592	106.97200
19950.00000	106.81971	-997.47890	106.81971
20000.00000	106.70016	-1000.14535	106.70016
20050.00000	106.58912	-1002.79531	106.58912
20100.00000	106.35385	-1005.46771	106.35385
20150.00000	106.27314	-1007.19666	106.27314
20200.00000	106.09925	-1010.47145	106.09925
20250.00000	105.88140	-1012.87188	105.88140
20300.00000	105.65519	-1015.27653	105.65519
20350.00000	105.54830	-1017.87392	105.54830
20400.00000	105.30556	-1019.38036	105.30556
20450.00000	105.03803	-1021.63395	105.03803
20500.00000	104.92255	-1024.09495	104.92255
20550.00000	104.50280	-1025.21233	104.50280
20600.00000	104.38200	-1026.75564	104.38200
20650.00000	104.20562	-1028.37282	104.20562
20700.00000	103.94878	-1029.63516	103.94878
20750.00000	103.82450	-1030.75981	103.82450
20800.00000	103.62889	-1031.48013	103.62889
20850.00000	103.53383	-1032.48303	103.53383
20900.00000	103.36208	-1033.17688	103.36208
20950.00000	103.25045	-1033.30816	103.25045
21000.00000	103.19854	-1033.67581	103.19854
21050.00000	103.32303	-1033.71760	103.32303
21100.00000	103.33590	-1033.97461	103.33590
21150.00000	103.48735	-1034.72664	103.48735
21200.00000	103.65302	-1035.13992	103.65302
21250.00000	103.79345	-1037.15165	103.79345
21300.00000	104.00569	-1037.88376	104.00569
21350.00000	104.18017	-1039.23810	104.18017
21400.00000	104.34521	-1041.29436	104.34521
21450.00000	104.52544	-1043.36737	104.52544
21500.00000	104.70255	-1045.84877	104.70255
21550.00000	104.74559	-1047.94920	104.74559
21600.00000	104.92217	-1050.66134	104.92217
21650.00000	104.96653	-1053.56129	104.96653
21700.00000	105.02628	-1055.79061	105.02628
21750.00000	105.06010	-1058.42606	105.06010
21800.00000	105.11013	-1061.22975	105.11013
21850.00000	105.05141	-1063.64688	105.05141
21900.00000	105.05747	-1066.22469	105.05747
21950.00000	104.99583	-1068.44205	104.99583
22000.00000	105.02569	-1070.62035	105.02569
22050.00000	104.98106	-1072.59225	104.98106
22100.00000	104.92304	-1075.04974	104.92304
22150.00000	104.86229	-1076.81765	104.86229
22200.00000	104.91251	-1078.97206	104.91251
22250.00000	104.82406	-1080.60986	104.82406
22300.00000	104.71690	-1082.75658	104.71690
22350.00000	104.82089	-1084.86714	104.82089
22400.00000	104.77969	-1086.78731	104.77969
22450.00000	104.68938	-1088.47623	104.68938
22500.00000	104.62441	-1089.40899	104.62441
22550.00000	104.61889	-1091.88784	104.61889
22600.00000	104.61346	-1094.47462	104.61346
22650.00000	104.58597	-1096.06634	104.58597
22700.00000	104.51041	-1097.75662	104.51041
22750.00000	104.52448	-1097.92656	104.52448
22800.00000	104.51444	-1102.03722	104.51444
22850.00000	104.57070	-1104.48398	104.57070
22900.00000	104.54531	-1104.71997	104.54531
22950.00000	104.50464	-1106.63046	104.50464
23000.00000	104.50206	-1107.82556	104.50206
23050.00000	104.45899	-1110.60671	104.45899
23100.00000	104.57077	-1110.90094	104.57077
23150.00000	104.39670	-1112.37022	104.39670
23200.00000	104.50596	-1115.41592	104.50596
23250.00000	104.32485	-1117.68633	104.32485
23300.00000	104.56569	-1119.65478	104.56569
23350.00000	104.29714	-1121.20745	104.29714
23400.00000	104.35479	-1123.22799	104.35479
23450.00000	104.47715	-1125.38703	104.47715
23500.00000	104.30631	-1126.24242	104.30631
23550.00000	104.26868	-1126.43591	104.26868
23600.00000	104.18332	-1129.77056	104.18332
23650.00000	104.22985	-1131.38658	104.22985
23700.00000	104.36280	-1134.84323	104.36280
23750.00000	104.37006	-1135.30100	104.37006
23800.00000	104.10410	-1135.42202	104.10410
23850.00000	104.29272	-1136.67510	104.29272
23900.00000	104.62102	-1139.06765	104.62102
23950.00000	104.28819	-1141.61139	104.28819
24000.00000	104.18022	-1144.38514	104.18022
24050.00000	104.32514	-1143.89487	104.32514
24100.00000	104.65760	-1147.68564	104.65760
24150.00000	104.63227	-1148.97331	104.63227
24200.00000	104.65296	-1152.56054	104.65296
24250.00000	104.39292	-1152.48218	104.39292
24300.00000	104.78869	-1155.55758	104.78869
24350.00000	104.75578	-1157.12278	104.75578
24400.00000	104.67450	-1159.69345	104.67450
24450.00000	104.47207	-1161.54230	104.47207
24500.00000	104.97537	-1162.61687	104.97537
24550.00000	104.82775	-1167.32115	104.82775
24600.00000	105.34071	-1168.00428	105.34071
24650.00000	105.07915	-812.29009	105.07915
24700.00000	104.94623	-452.27411	104.94623
24750.00000	105.12289	-96.93319	105.12289
24800.00000	105.13231	260.35820	105.13231
24850.00000	104.81335	619.34022	104.81335
24900.00000	104.96358	978.03963	104.96358
24950.00000	104.91789	1331.36939	104.91789
25000.00000	105.18571	1326.21523	105.18571
25050.00000	105.21746	1325.92471	105.21746
25100.00000	104.74110	1323.64666	104.74110
25150.00000	105.04327	1322.23656	105.04327
25200.00000	104.81168	1318.46306	104.81168
25250.00000	104.94020	1316.88515	104.94020
25300.00000	104.89416	1314.59922	104.89416
25350.00000	104.87628	1308.38302	104.87628
25400.00000	104.76424	1304.68059	104.76424
25450.00000	104.78516	1303.60054	104.78516
25500.00000	104.57429	1301.20974	104.57429
25550.00000	104.51418	1297.56003	104.51418
25600.00000	104.53893	1295.35382	104.53893
25650.00000	104.38815	1293.65424	104.38815
25700.00000	104.39662	1290.28726	104.39662
25750.00000	104.11385	1287.80279	104.11385
25800.00000	103.95127	1284.31536	103.95127
25850.00000	103.93648	1282.30700	103.93648
25900.00000	103.85991	1278.63958	103.85991
25950.00000	103.63423	1280.36894	103.63423
26000.00000	103.64928	1274.71066	103.64928
26050.00000	103.47215	1273.04981	103.47215
26100.00000	103.43378	1270.81953	103.43378
26150.00000	103.35325	1268.23347	103.35325
26200.00000	103.38602	1266.20737	103.38602
26250.00000	103.26206	1263.71139	103.26206
26300.00000	103.23891	1260.91090	103.23891
26350.00000	102.89604	1259.99715	102.89604
26400.00000	102.80224	1257.71907	102.80224
26450.00000	103.09653	1254.36524	103.09653
26500.00000	102.81526	1252.33942	102.81526
26550.00000	102.74925	1247.34274	102.74925
26600.00000	102.74823	1245.69767	102.74823
26650.00000	102.73624	1246.48204	102.73624
26700.00000	102.79284	1242.82984	102.79284
26750.00000	102.65018	1240.35548	102.65018
26800.00000	102.53342	1234.82112	102.53342
26850.00000	102.75745	1234.79514	102.75745
26900.00000	102.83226	1233.38688	102.83226
26950.00000	102.98381	1229.09028	102.98381
27000.00000	102.51312	1227.45536	102.51312
27050.00000	102.81671	1224.43862	102.81671
27100.00000	102.61410	1223.27442	102.61410
27150.00000	102.56295	1218.31717	102.56295
27200.00000	102.76309	1216.86662	102.76309
27250.00000	102.54808	1215.14693	102.54808
27300.00000	102.23285	1211.25275	102.23285
27350.00000	102.43731	1209.95094	102.43731
27400.00000	102.11140	1206.05735	102.11140
27450.00000	102.01661	1203.06329	102.01661
27500.00000	101.89804	1200.01066	101.89804
27550.00000	101.99577	1196.97995	101.99577
27600.00000	102.21631	1192.62939	102.21631
27650.00000	101.64571	1192.21345	101.64571
27700.00000	101.71464	1186.16384	101.71464
27750.00000	101.44285	1182.37933	101.44285
27800.00000	101.44854	1178.22170	101.44854
27850.00000	101.46069	1179.33774	101.46069
27900.00000	100.89222	1176.13654	100.89222
27950.00000	100.13850	1172.80358	100.13850
28000.00000	100.16145	1170.48684	100.16145
28050.00000	100.42644	1166.56322	100.42644
28100.00000	99.66385	1165.41308	99.66385
28150.00000	99.36066	1163.80650	99.36066
28200.00000	99.37594	1159.22580	99.37594
28250.00000	98.69432	1156.36750	98.69432
28300.00000	98.32983	1156.38052	98.32983
28350.00000	98.17525	1153.69767	98.17525
28400.00000	97.83451	1154.65525	97.83451
28450.00000	98.18157	1150.60523	98.18157
28500.00000	97.35072	1150.64754	97.35072
28550.00000	96.91065	1151.85971	96.91065
28600.00000	97.02287	1151.74875	97.02287
28650.00000	97.00469	1146.96892	97.00469
28700.00000	96.56669	1149.03857	96.56669
28750.00000	96.75356	1150.28076	96.75356
28800.00000	96.49216	1147.48045	96.49216
28850.00000	95.68668	1146.23996	95.68668
28900.00000	95.60796	1146.29904	95.60796
28950.00000	95.54978	1145.71082	95.54978
29000.00000	95.75391	1146.63483	95.75391
29050.00000	95.07949	1148.73877	95.07949
29100.00000	95.13656	1148.99735	95.13656
29150.00000	94.80156	1148.87405	94.80156
29200.00000	94.55258	1147.28140	94.55258
29250.00000	94.87943	1148.78564	94.87943
29300.00000	94.49966	1147.70483	94.49966
29350.00000	94.91699	1147.03917	94.91699
29400.00000	94.69106	1146.90740	94.69106
29450.00000	94.39514	1147.18838	94.39514
29500.00000	95.03214	1149.98961	95.03214
29550.00000	94.70029	1146.30027	94.70029
29600.00000	94.48903	1148.84677	94.48903
29650.00000	94.78279	1146.70648	94.78279
29700.00000	94.61159	1151.14629	94.61159
29750.00000	94.56763	1152.51312	94.56763
29800.00000	94.55277	1149.81574	94.55277
29850.00000	94.65486	1149.21843	94.65486
29900.00000	94.93360	1151.44015	94.93360
29950.00000	94.23150	1151.84946	94.23150
30000.00000	94.74120	1155.09883	94.74120
30050.00000	94.87954	1152.93418	94.87954
30100.00000	94.75259	1155.90019	94.75259
30150.00000	95.15684	1153.61920	95.15684
30200.00000	95.18691	1153.70601	95.18691
30250.00000	95.22452	1155.56108	95.22452
30300.00000	95.08500	1156.23377	95.08500
30350.00000	95.37609	1159.04401	95.37609
30400.00000	95.66217	1157.99692	95.66217
30450.00000	95.38381	1159.00416	95.38381
30500.00000	95.65038	1159.88417	95.65038
30550.00000	95.77342	1161.51435	95.77342
30600.00000	96.06965	1163.91791	96.06965
30650.00000	96.41078	1164.36220	96.41078
30700.00000	96.65631	1164.98700	96.65631
30750.00000	96.72824	1167.13829	96.72824
30800.00000	97.12925	1167.59635	97.12925
30850.00000	97.55847	1170.17511	97.55847
30900.00000	97.64907	1172.02198	97.64907
30950.00000	98.34496	1171.95480	98.34496
31000.00000	98.81073	1172.02166	98.81073
31050.00000	99.38389	1173.10065	99.38389
31100.00000	100.06770	1174.22421	100.06770
31150.00000	100.24698	1173.63726	100.24698
31200.00000	101.21899	1173.02040	101.21899
31250.00000	101.65300	1172.49921	101.65300
31300.00000	102.27438	1171.32397	102.27438
31350.00000	102.92613	1170.69755	102.92613
31400.00000	103.32583	1167.91478	103.32583
31450.00000	103.95969	1166.34354	103.95969
31500.00000	104.42434	1163.21754	104.42434
31550.00000	104.97388	1160.92647	104.97388
31600.00000	105.55563	1157.66641	105.55563
31650.00000	106.00495	1154.70791	106.00495
31700.00000	106.49734	1152.41724	106.49734
31750.00000	106.95635	1149.96138	106.95635
31800.00000	107.34842	1145.77358	107.34842
31850.00000	107.72637	1141.73264	107.72637
31900.00000	107.95692	1138.31784	107.95692
31950.00000	108.33032	1134.90007	108.33032
32000.00000	108.64349	1131.15302	108.64349
32050.00000	108.99023	1127.37514	108.99023
32100.00000	109.13992	1123.28924	109.13992
32150.00000	109.38806	1120.29694	109.38806
32200.00000	109.74874	1116.22866	109.74874
32250.00000	109.89019	1111.90477	109.89019
32300.00000	110.05474	1108.48079	110.05474
32350.00000	110.19909	1105.14841	110.19909
32400.00000	110.39089	1101.94678	110.39089
32450.00000	110.50790	1097.29278	110.50790
32500.00000	110.72641	1094.11366	110.72641
32550.00000	110.93034	1089.71550	110.93034
32600.00000	111.00105	1086.73578	111.00105
32650.00000	111.18928	1082.95171	111.18928
32700.00000	111.14734	1078.93576	111.14734
32750.00000	111.22904	1074.93391	111.22904
32800.00000	111.47096	1072.41496	111.47096
32850.00000	111.62889	1068.39310	111.62889
32900.00000	111.62759	1064.33463	111.62759
32950.00000	111.68301	1059.91050	111.68301
33000.00000	111.73943	1058.43810	111.73943
33050.00000	111.81937	1053.41717	111.81937
33100.00000	111.95612	1050.30530	111.95612
33150.00000	112.01504	1047.17777	112.01504
33200.00000	112.22787	1044.66554	112.22787
33250.00000	112.19471	1041.17344	112.19471
33300.00000	112.26871	1036.74045	112.26871
33350.00000	112.26546	1033.06473	112.26546
33400.00000	112.34829	1030.89917	112.34829
33450.00000	112.45765	1026.64763	112.45765
33500.00000	112.62472	1024.94497	112.62472
33550.00000	112.45129	1020.15199	112.45129
33600.00000	112.80574	1017.13548	112.80574
33650.00000	112.86797	1013.34954	112.86797
33700.00000	112.85539	1010.26545	112.85539
33750.00000	112.82740	1006.75977	112.82740
33800.00000	113.00619	1003.53184	113.00619
33850.00000	112.74219	1000.12215	112.74219
33900.00000	113.03055	996.66034	113.03055
33950.00000	113.03646	994.13165	113.03646
34000.00000	113.16759	990.18769	113.16759
34050.00000	113.10772	986.59018	113.10772
34100.00000	113.06411	984.64836	113.06411
34150.00000	113.27514	980.71198	113.27514
34200.00000	113.30651	979.42772	113.30651
34250.00000	113.33242	974.89739	113.33242
34300.00000	113.37339	971.75817	113.37339
34350.00000	113.48834	968.29052	113.48834
34400.00000	113.31316	967.17270	113.31316
34450.00000	113.52434	961.16913	113.52434
34500.00000	113.52381	958.99294	113.52381
34550.00000	113.61906	955.67321	113.61906
34600.00000	113.27991	951.08944	113.27991
34650.00000	113.51298	950.69775	113.51298
34700.00000	113.10130	949.09826	113.10130
34750.00000	113.28899	942.31041	113.28899
34800.00000	113.49931	943.44700	113.49931
34850.00000	113.61912	942.49792	113.61912
34900.00000	113.83152	938.03421	113.83152
34950.00000	113.67154	936.89136	113.67154
35000.00000	113.70049	933.01597	113.70049
35050.00000	113.94101	932.10777	113.94101
35100.00000	114.05270	928.89420	114.05270
35150.00000	113.88610	926.94830	113.88610
35200.00000	113.97780	923.73529	113.97780
35250.00000	114.09186	920.31925	114.09186
35300.00000	114.24420	918.17912	114.24420
35350.00000	114.41320	915.20338	114.41320
35400.00000	114.41180	913.03261	114.41180
35450.00000	114.47181	911.32885	114.47181
35500.00000	114.33048	909.15596	114.33048
35550.00000	114.73160	907.64943	114.73160
35600.00000	114.76317	904.30759	114.76317
35650.00000	114.86382	902.24998	114.86382
35700.00000	115.02573	900.16028	115.02573
35750.00000	115.07536	898.58632	115.07536
35800.00000	115.28795	896.80930	115.28795
35850.00000	115.52173	893.25944	115.52173
35900.00000	115.72596	890.79098	115.72596
35950.00000	115.96192	888.42585	115.96192
36000.00000	116.05934	885.96208	116.05934
36050.00000	116.38564	883.10344	116.38564
36100.00000	116.58403	880.44465	116.58403
36150.00000	116.60379	877.59665	116.60379
36200.00000	116.78028	875.49726	116.78028
36250.00000	116.87638	872.50075	116.87638
36300.00000	116.93907	869.64613	116.93907
36350.00000	117.23638	867.30358	117.23638
36400.00000	117.44195	864.22437	117.44195
36450.00000	117.35960	860.85010	117.35960
36500.00000	117.75466	859.29219	117.75466
36550.00000	117.78350	854.69607	117.78350
36600.00000	117.95366	852.13312	117.95366
36650.00000	118.15321	849.40667	118.15321
36700.00000	118.27555	845.23391	118.27555
36750.00000	118.45743	842.07032	118.45743
36800.00000	118.45310	839.58196	118.45310
36850.00000	118.41986	836.16081	118.41986
36900.00000	118.70891	832.76629	118.70891
36950.00000	118.57078	828.69725	118.57078
37000.00000	118.32987	826.64241	118.32987
37050.00000	118.38090	824.14945	118.38090
37100.00000	118.56112	820.04273	118.56112
37150.00000	118.57547	816.37300	118.57547
37200.00000	118.76524	815.53379	118.76524
37250.00000	118.41995	811.54516	118.41995
37300.00000	118.46128	809.10531	118.46128
37350.00000	118.69754	806.14397	118.69754
37400.00000	118.44026	804.25891	118.44026
37450.00000	118.39095	802.06914	118.39095
37500.00000	118.67611	798.17653	118.67611
37550.00000	118.42278	796.02474	118.42278
37600.00000	118.41490	793.71262	118.41490
37650.00000	118.37040	791.80327	118.37040
37700.00000	118.46000	788.11432	118.46000
37750.00000	118.44926	786.65779	118.44926
37800.00000	118.33111	783.71882	118.33111
37850.00000	118.41770	780.09488	118.41770
37900.00000	118.39559	779.00797	118.39559
37950.00000	118.50144	777.41091	118.50144
38000.00000	118.39180	774.85249	118.39180
38050.00000	118.52210	772.09434	118.52210
38100.00000	118.67935	769.13625	118.67935
38150.00000	118.64129	765.96244	118.64129
38200.00000	118.85425	762.42759	118.85425
38250.00000	118.81769	760.34066	118.81769
38300.00000	118.94816	756.47686	118.94816
38350.00000	119.03311	754.25363	119.03311
38400.00000	119.13954	750.77440	119.13954
38450.00000	119.17102	746.51837	119.17102
38500.00000	119.37896	742.79320	119.37896
38550.00000	119.50088	739.55977	119.50088
38600.00000	119.61947	735.62731	119.61947
38650.00000	119.71918	730.94395	119.71918
38700.00000	119.70898	726.40870	119.70898
38750.00000	119.81290	722.64542	119.81290
38800.00000	119.88155	717.97556	119.88155
38850.00000	119.83344	713.28064	119.83344
38900.00000	119.82041	708.80351	119.82041
38950.00000	119.81585	703.88756	119.81585
39000.00000	119.74960	698.73767	119.74960
39050.00000	119.74770	694.32535	119.74770
39100.00000	119.57945	689.28468	119.57945
39150.00000	119.40330	684.12610	119.40330
39200.00000	119.24837	679.51755	119.24837
39250.00000	119.05061	674.65769	119.05061
39300.00000	118.88261	669.72866	118.88261
39350.00000	118.58397	665.63962	118.58397
39400.00000	118.32327	660.72024	118.32327
39450.00000	118.04284	656.94210	118.04284
39500.00000	117.78874	652.52198	117.78874
39550.00000	117.39157	647.87885	117.39157
39600.00000	116.99500	644.06128	116.99500
39650.00000	116.73947	640.68990	116.73947
39700.00000	116.33495	637.40577	116.33495
39750.00000	116.06765	633.51731	116.06765
39800.00000	115.73820	630.75533	115.73820
39850.00000	115.29434	627.43771	115.29434
39900.00000	115.02882	624.64710	115.02882
39950.00000	114.68363	621.89369	114.68363
40000.00000	114.21269	620.47969	114.21269
40050.00000	113.98081	617.05477	113.98081
40100.00000	113.64956	614.18665	113.64956
40150.00000	113.29470	611.98755	113.29470
40200.00000	113.00880	609.69734	113.00880
40250.00000	112.58089	608.29279	112.58089
40300.00000	112.47080	606.25406	112.47080
40350.00000	111.95899	604.96557	111.95899
40400.00000	111.68533	603.47215	111.68533
40450.00000	111.35139	601.96035	111.35139
40500.00000	111.28201	600.99386	111.28201
40550.00000	110.96499	598.88224	110.96499
40600.00000	110.73086	598.79765	110.73086
40650.00000	110.49787	598.01101	110.49787
40700.00000	110.21843	597.67385	110.21843
40750.00000	110.23192	596.96409	110.23192
40800.00000	109.96144	596.11270	109.96144
40850.00000	109.78087	595.12979	109.78087
40900.00000	109.65022	595.13243	109.65022
40950.00000	109.38544	595.75136	109.38544
41000.00000	109.20716	595.61890	109.20716
41050.00000	109.32188	595.72638	109.32188
41100.00000	109.27287	594.55026	109.27287
41150.00000	109.45877	596.72897	109.45877
41200.00000	109.42628	596.39058	109.42628
41250.00000	109.41461	594.59541	109.41461
41300.00000	109.22815	595.69410	109.22815
41350.00000	109.52524	596.47458	109.52524
41400.00000	109.44262	592.56962	109.44262
41450.00000	109.63923	595.28346	109.63923
41500.00000	109.78168	594.66920	109.78168
41550.00000	109.63675	598.14875	109.63675
41600.00000	109.53323	595.76205	109.53323
41650.00000	110.07305	594.83868	110.07305
41700.00000	110.23757	595.34852	110.23757
41750.00000	110.17548	598.37793	110.17548
41800.00000	109.59377	593.97535	109.59377
41850.00000	109.59168	595.90952	109.59168
41900.00000	109.73019	596.13995	109.73019
41950.00000	110.70770	600.89879	110.70770
42000.00000	110.22818	594.66279	110.22818
42050.00000	109.33942	593.36447	109.33942
42100.00000	109.74928	594.16500	109.74928
42150.00000	109.70393	588.94849	109.70393
42200.00000	109.59840	595.42828	109.59840
42250.00000	109.69925	594.57412	109.69925
42300.00000	108.99389	591.14378	108.99389
42350.00000	109.65112	591.11163	109.65112
42400.00000	109.57218	592.72527	109.57218
42450.00000	110.34536	588.71109	110.34536
42500.00000	109.76743	588.48159	109.76743
42550.00000	110.19483	598.91372	110.19483
42600.00000	109.75227	589.14557	109.75227
42650.00000	109.88266	589.93636	109.88266
42700.00000	109.44306	588.06238	109.44306
42750.00000	110.34399	587.24192	110.34399
42800.00000	109.88216	579.01236	109.88216
42850.00000	109.62864	576.38222	109.62864
42900.00000	110.82786	583.23296	110.82786
42950.00000	109.88260	577.84673	109.88260
43000.00000	110.76585	566.61811	110.76585
43050.00000	110.05265	564.76040	110.05265
43100.00000	110.49289	567.59366	110.49289
43150.00000	109.69772	562.62156	109.69772
43200.00000	110.40108	557.78506	110.40108
43250.00000	110.30540	553.94474	110.30540
43300.00000	110.16326	551.45741	110.16326
43350.00000	111.37051	547.26594	111.37051
43400.00000	110.62145	543.71866	110.62145
43450.00000	111.48192	542.22411	111.48192
43500.00000	110.01163	532.75284	110.01163
43550.00000	110.56689	530.48894	110.56689
43600.00000	110.45337	525.63194	110.45337
43650.00000	110.70080	516.53306	110.70080
43700.00000	110.37829	515.75107	110.37829
43750.00000	109.94386	513.56104	109.94386
43800.00000	110.27184	504.63043	110.27184
43850.00000	110.68191	500.18385	110.68191
43900.00000	110.84235	498.47393	110.84235
43950.00000	110.87703	490.88313	110.87703
44000.00000	110.37977	486.50216	110.37977
44050.00000	110.65838	481.53293	110.65838
44100.00000	110.63345	468.09781	110.63345
44150.00000	110.21264	469.42669	110.21264
44200.00000	110.13204	466.83243	110.13204
44250.00000	110.31708	462.44407	110.31708
44300.00000	110.42589	452.33560	110.42589
44350.00000	109.20695	447.81828	109.20695
44400.00000	110.22019	442.75385	110.22019
44450.00000	110.17296	439.03441	110.17296
44500.00000	109.63647	435.07805	109.63647
44550.00000	110.96728	424.37152	110.96728
44600.00000	109.82615	427.08965	109.82615
44650.00000	109.47025	416.72807	109.47025
44700.00000	109.02920	412.27327	109.02920
44750.00000	109.16285	411.14823	109.16285
44800.00000	109.85188	402.83990	109.85188
44850.00000	108.91462	397.19180	108.91462
44900.00000	108.55134	395.58083	108.55134
44950.00000	108.63982	388.12065	108.63982
45000.00000	108.43473	378.63235	108.43473
45050.00000	107.17822	386.05642	107.17822
45100.00000	107.47467	378.00173	107.47467
45150.00000	107.60548	365.45016	107.60548
45200.00000	106.86773	370.78142	106.86773
45250.00000	106.63417	362.52047	106.63417
45300.00000	106.25397	358.61828	106.25397
45350.00000	105.54034	348.71052	105.54034
45400.00000	105.63312	349.47120	105.63312
45450.00000	105.22825	340.10766	105.22825
45500.00000	103.50711	335.82541	103.50711
45550.00000	103.57915	342.02212	103.57915
45600.00000	104.34260	330.23478	104.34260
45650.00000	102.92091	323.29028	102.92091
45700.00000	102.61208	323.88318	102.61208
45750.00000	102.82017	329.67229	102.82017
45800.00000	101.95122	318.16715	101.95122
45850.00000	101.33574	315.37788	101.33574
45900.00000	100.97859	316.75716	100.97859
45950.00000	100.68637	316.42670	100.68637
46000.00000	99.13334	298.51849	99.13334
46050.00000	98.75011	299.92965	98.75011
46100.00000	97.96615	300.31912	97.96615
46150.00000	97.61807	302.01503	97.61807
46200.00000	95.62521	290.73480	95.62521
46250.00000	96.99200	298.01666	96.99200
46300.00000	95.52529	292.51909	95.52529
46350.00000	96.46690	295.50813	96.46690
46400.00000	94.57937	287.54840	94.57937
46450.00000	92.84490	291.16699	92.84490
46500.00000	94.40899	292.88827	94.40899
46550.00000	93.74393	297.72745	93.74393
46600.00000	93.42811	303.50036	93.42811
46650.00000	90.46611	292.91338	90.46611
46700.00000	90.97456	301.96745	90.97456
46750.00000	92.18435	311.00210	92.18435
46800.00000	88.71939	306.66196	88.71939
46850.00000	90.60936	-36.54639	90.60936
46900.00000	91.05562	-52.92302	91.05562
46950.00000	92.43782	-38.24918	92.43782
47000.00000	91.71060	-39.65858	91.71060
47050.00000	93.56568	-45.91336	93.56568
47100.00000	92.73358	-50.84579	92.73358
47150.00000	93.61708	-43.04795	93.61708
47200.00000	92.13232	-54.75111	92.13232
47250.00000	94.33179	-46.98319	94.33179
47300.00000	92.43820	-55.34144	92.43820
47350.00000	93.28534	-409.18142	93.28534
47400.00000	92.73258	-409.34279	92.73258
47450.00000	94.16746	-407.33940	94.16746
47500.00000	92.62005	-421.78919	92.62005
47550.00000	92.30185	-769.84422	92.30185
47600.00000	92.56628	-783.40891	92.56628
47650.00000	94.45600	-780.24386	94.45600
47700.00000	92.83261	-783.97698	92.83261
47750.00000	91.06172	-779.43270	91.06172
47800.00000	91.91446	-798.89048	91.91446
47850.00000	92.84397	-1149.68402	92.84397
47900.00000	93.06372	-1499.48593	93.06372
47950.00000	91.90639	-1501.55223	91.90639
48000.00000	91.88048	-1501.24629	91.88048
48050.00000	93.93159	-1508.95718	93.93159
48100.00000	92.40347	-1509.49301	92.40347
48150.00000	91.30074	-1858.61687	91.30074
48200.00000	93.37251	-1859.02972	93.37251
48250.00000	91.56414	-1876.86853	91.56414
48300.00000	93.88834	-1870.22859	93.88834
48350.00000	93.62462	-1878.43717	93.62462
48400.00000	93.88093	-2225.76181	93.88093
48450.00000	94.58199	-2229.20901	94.58199
48500.00000	93.38667	-2237.09789	93.38667
48550.00000	92.90044	-2245.56033	92.90044
48600.00000	94.55287	-2600.13553	94.55287
48650.00000	95.14203	-2601.63954	95.14203
48700.00000	96.17706	-2609.32418	96.17706
48750.00000	94.40917	-2965.93703	94.40917
48800.00000	95.12930	-2977.09294	95.12930
48850.00000	95.57505	-2981.76044	95.57505
48900.00000	94.92171	-3332.02456	94.92171
48950.00000	95.26149	-3351.92190	95.26149
49000.00000	95.98457	-3361.29088	95.98457
49050.00000	94.59818	-3360.85204	94.59818
49100.00000	94.50791	-3715.59713	94.50791
49150.00000	95.82802	-4082.89438	95.82802
49200.00000	94.69669	-4097.01272	94.69669
49250.00000	96.23107	-4445.44945	96.23107
49300.00000	95.32853	-4105.62098	95.32853
49350.00000	93.05848	-4093.72741	93.05848
49400.00000	93.46500	-3747.22277	93.46500
49450.00000	93.27022	-3408.16456	93.27022
49500.00000	92.64358	-3039.96546	92.64358
49550.00000	92.50567	-2702.07890	92.50567
49600.00000	92.50770	-2692.28931	92.50770
49650.00000	92.00285	-2693.02225	92.00285
49700.00000	93.12616	-2373.18296	93.12616
49750.00000	90.43296	-2380.29180	90.43296
49800.00000	90.87221	-2374.72437	90.87221
49850.00000	90.61544	-2373.22488	90.61544
49900.00000	85.67718	-2060.46181	85.67718
49950.00000	93.28978	-1703.69627	93.28978
