---ACOUSTIC CALIBRATION---
Filename: C:\Data\AZH DATA\AZH81\RightSecondary.calib
Date: 8/27/2019 4:25:06 PM
Format: 4
Probe Tube Correction File: C:\Data\Probe Tube Calibrations\50_ProbeTube.calib
Experiment VIs: 850
EPL_CFTS.exe V12.0.1 (2012)
DAQmx V9.6

Attenuation (dB): 40.000000
Min Freq (Hz): 50.000000
Max Freq (Hz): 49950.000000
Freq Step (Hz): 50.000000
Sample Rate (Hz): 100000.000000
[Smoothing]
Method=None
MA.Iterations=0
MA.Length=0
Loess.Length=0
Loess.Type=Linear
Loess.Robust=FALSE


Freq(Hz)	Mag(dB)	Phase(deg)	Unsmoothed(dB)

50.00000	100.03347	537.07414	100.03347
100.00000	82.82726	523.17826	82.82726
150.00000	82.33539	484.23694	82.33539
200.00000	86.38345	432.48052	86.38345
250.00000	92.71821	407.44732	92.71821
300.00000	93.12726	343.71182	93.12726
350.00000	89.39793	339.19663	89.39793
400.00000	89.00445	314.83750	89.00445
450.00000	84.93531	300.56754	84.93531
500.00000	81.16621	318.69566	81.16621
550.00000	88.40438	333.48714	88.40438
600.00000	92.80804	324.42799	92.80804
650.00000	95.24932	329.90983	95.24932
700.00000	97.77376	321.43140	97.77376
750.00000	100.16899	315.82179	100.16899
800.00000	102.41326	306.17232	102.41326
850.00000	104.82065	295.83354	104.82065
900.00000	106.06506	278.88461	106.06506
950.00000	107.52597	263.13963	107.52597
1000.00000	107.58451	245.02139	107.58451
1050.00000	107.05032	235.45500	107.05032
1100.00000	107.33684	224.49009	107.33684
1150.00000	106.52676	214.44017	106.52676
1200.00000	106.20595	212.03334	106.20595
1250.00000	106.41681	202.07146	106.41681
1300.00000	105.65142	196.62579	105.65142
1350.00000	105.06278	191.71227	105.06278
1400.00000	104.54542	190.63518	104.54542
1450.00000	104.37545	189.87080	104.37545
1500.00000	104.52294	189.06889	104.52294
1550.00000	104.66868	187.37377	104.66868
1600.00000	105.33641	183.58774	105.33641
1650.00000	106.10928	176.09393	106.10928
1700.00000	104.92509	172.32850	104.92509
1750.00000	104.82960	170.73660	104.82960
1800.00000	104.79086	167.50954	104.79086
1850.00000	104.75352	169.55120	104.75352
1900.00000	105.58865	170.21213	105.58865
1950.00000	106.50790	162.10728	106.50790
2000.00000	106.34488	151.88561	106.34488
2050.00000	105.28196	147.63255	105.28196
2100.00000	105.15705	146.45812	105.15705
2150.00000	105.00430	143.27166	105.00430
2200.00000	104.47516	139.50738	104.47516
2250.00000	103.44001	138.41442	103.44001
2300.00000	103.45628	140.19222	103.45628
2350.00000	103.22916	142.16301	103.22916
2400.00000	103.60016	143.40161	103.60016
2450.00000	103.71602	140.23343	103.71602
2500.00000	103.27318	140.30479	103.27318
2550.00000	102.97157	142.22912	102.97157
2600.00000	103.19048	148.21474	103.19048
2650.00000	104.18893	152.70119	104.18893
2700.00000	105.76356	152.68856	105.76356
2750.00000	107.11647	145.52221	107.11647
2800.00000	107.69542	136.36406	107.69542
2850.00000	107.64166	128.26725	107.64166
2900.00000	107.36537	121.95878	107.36537
2950.00000	107.05912	118.20857	107.05912
3000.00000	106.81868	114.29034	106.81868
3050.00000	106.45761	111.45263	106.45761
3100.00000	106.39021	108.89329	106.39021
3150.00000	106.08108	103.68300	106.08108
3200.00000	105.57782	100.31547	105.57782
3250.00000	104.89459	97.63672	104.89459
3300.00000	104.19508	94.87620	104.19508
3350.00000	102.88927	94.01143	102.88927
3400.00000	101.77082	99.06508	101.77082
3450.00000	100.99573	106.94259	100.99573
3500.00000	100.99101	115.71518	100.99101
3550.00000	101.40069	121.30780	101.40069
3600.00000	101.91001	126.37260	101.91001
3650.00000	102.19483	128.80475	102.19483
3700.00000	101.88006	133.79002	101.88006
3750.00000	102.18879	144.08736	102.18879
3800.00000	103.51810	154.76651	103.51810
3850.00000	105.46023	161.13020	105.46023
3900.00000	107.49148	163.06604	107.49148
3950.00000	109.32792	160.99374	109.32792
4000.00000	110.83748	157.18686	110.83748
4050.00000	112.06210	152.64812	112.06210
4100.00000	113.07403	148.67839	113.07403
4150.00000	114.19222	145.11965	114.19222
4200.00000	115.01560	140.86463	115.01560
4250.00000	115.92013	137.21909	115.92013
4300.00000	116.77275	133.77874	116.77275
4350.00000	117.65697	130.46420	117.65697
4400.00000	118.62514	127.81104	118.62514
4450.00000	119.75671	124.82108	119.75671
4500.00000	121.03190	120.84411	121.03190
4550.00000	122.39191	115.49083	122.39191
4600.00000	123.74991	108.72689	123.74991
4650.00000	125.14136	100.61223	125.14136
4700.00000	126.45648	90.43872	126.45648
4750.00000	127.61616	78.47909	127.61616
4800.00000	128.52312	64.54598	128.52312
4850.00000	129.02299	49.44587	129.02299
4900.00000	129.06136	33.89846	129.06136
4950.00000	128.60384	19.07572	128.60384
5000.00000	127.66877	 6.31999	127.66877
5050.00000	126.57119	-2.92211	126.57119
5100.00000	125.38084	-12.59908	125.38084
5150.00000	122.91033	-16.72523	122.91033
5200.00000	121.18026	-0.00995	121.18026
5250.00000	124.06470	11.29131	124.06470
5300.00000	126.28176	-0.42208	126.28176
5350.00000	126.88115	-14.30327	126.88115
5400.00000	126.79627	-26.04955	126.79627
5450.00000	126.46006	-35.62463	126.46006
5500.00000	126.02462	-43.78734	126.02462
5550.00000	125.57573	-50.82182	125.57573
5600.00000	125.12383	-57.14833	125.12383
5650.00000	124.69553	-62.87186	124.69553
5700.00000	124.24901	-68.39396	124.24901
5750.00000	123.83751	-73.31616	123.83751
5800.00000	123.41784	-78.10247	123.41784
5850.00000	123.02095	-82.69047	123.02095
5900.00000	122.65234	-86.95810	122.65234
5950.00000	122.28928	-91.11396	122.28928
6000.00000	121.94416	-94.98601	121.94416
6050.00000	121.59326	-98.96577	121.59326
6100.00000	121.25060	-102.76987	121.25060
6150.00000	120.92501	-106.51266	120.92501
6200.00000	120.57284	-110.10507	120.57284
6250.00000	120.26154	-113.58562	120.26154
6300.00000	119.96435	-117.09362	119.96435
6350.00000	119.64473	-120.44286	119.64473
6400.00000	119.33814	-123.70271	119.33814
6450.00000	119.04824	-126.94742	119.04824
6500.00000	118.73914	-130.06582	118.73914
6550.00000	118.42274	-133.13924	118.42274
6600.00000	118.12357	-136.02261	118.12357
6650.00000	117.82771	-138.81395	117.82771
6700.00000	117.53842	-141.73529	117.53842
6750.00000	117.24721	-144.36654	117.24721
6800.00000	116.97244	-146.91419	116.97244
6850.00000	116.68888	-149.39105	116.68888
6900.00000	116.44218	-151.71298	116.44218
6950.00000	116.19146	-153.89839	116.19146
7000.00000	115.99449	-156.03726	115.99449
7050.00000	115.78564	-158.29181	115.78564
7100.00000	115.62248	-160.64955	115.62248
7150.00000	115.45645	-162.73163	115.45645
7200.00000	115.30997	-164.91906	115.30997
7250.00000	115.14343	-167.26622	115.14343
7300.00000	115.03197	-169.32322	115.03197
7350.00000	114.91314	-171.36856	114.91314
7400.00000	114.83332	-173.59178	114.83332
7450.00000	114.76291	-175.86804	114.76291
7500.00000	114.71362	-178.39515	114.71362
7550.00000	114.68803	-180.80151	114.68803
7600.00000	114.63342	-183.47136	114.63342
7650.00000	114.61245	-186.36427	114.61245
7700.00000	114.62661	-189.47437	114.62661
7750.00000	114.55833	-192.95784	114.55833
7800.00000	114.48998	-196.49043	114.48998
7850.00000	114.40929	-200.10968	114.40929
7900.00000	114.29362	-203.76663	114.29362
7950.00000	114.13348	-207.70311	114.13348
8000.00000	113.93448	-211.66302	113.93448
8050.00000	113.70096	-215.80295	113.70096
8100.00000	113.45678	-219.05343	113.45678
8150.00000	113.12543	-222.64126	113.12543
8200.00000	112.82613	-225.97009	112.82613
8250.00000	112.46651	-229.48481	112.46651
8300.00000	112.13651	-232.61871	112.13651
8350.00000	111.76565	-235.32003	111.76565
8400.00000	111.40470	-238.33019	111.40470
8450.00000	110.96810	-240.90733	110.96810
8500.00000	110.54826	-243.36611	110.54826
8550.00000	110.18400	-245.28124	110.18400
8600.00000	109.78439	-247.44644	109.78439
8650.00000	109.37510	-249.25043	109.37510
8700.00000	109.02607	-251.67829	109.02607
8750.00000	108.61458	-252.47013	108.61458
8800.00000	108.29236	-254.39493	108.29236
8850.00000	107.94029	-256.22057	107.94029
8900.00000	107.66550	-257.61513	107.66550
8950.00000	107.41479	-259.38887	107.41479
9000.00000	107.09216	-261.02939	107.09216
9050.00000	106.92013	-262.57862	106.92013
9100.00000	106.74254	-263.57529	106.74254
9150.00000	106.59583	-264.79390	106.59583
9200.00000	106.45356	-265.83923	106.45356
9250.00000	106.23581	-266.81548	106.23581
9300.00000	106.07009	-267.76013	106.07009
9350.00000	105.93389	-268.84819	105.93389
9400.00000	105.65662	-269.69336	105.65662
9450.00000	105.51722	-271.01850	105.51722
9500.00000	105.39649	-272.44323	105.39649
9550.00000	105.25851	-274.03675	105.25851
9600.00000	105.26438	-276.00232	105.26438
9650.00000	105.24554	-278.07675	105.24554
9700.00000	105.29666	-279.16579	105.29666
9750.00000	105.40958	-281.37446	105.40958
9800.00000	105.39835	-282.12339	105.39835
9850.00000	105.40516	-282.58007	105.40516
9900.00000	105.20094	-283.67012	105.20094
9950.00000	105.06442	-284.27464	105.06442
10000.00000	104.86769	-286.03114	104.86769
10050.00000	104.60398	-287.93846	104.60398
10100.00000	104.34724	-290.31650	104.34724
10150.00000	104.07768	-293.78016	104.07768
10200.00000	103.98559	-297.01810	103.98559
10250.00000	103.91390	-300.47034	103.91390
10300.00000	104.03253	-303.25464	104.03253
10350.00000	104.04126	-305.06232	104.04126
10400.00000	103.99066	-306.86002	103.99066
10450.00000	103.99940	-308.28601	103.99940
10500.00000	103.90440	-309.51188	103.90440
10550.00000	103.69832	-311.16368	103.69832
10600.00000	103.40200	-312.89843	103.40200
10650.00000	103.09748	-315.15097	103.09748
10700.00000	102.88498	-319.06991	102.88498
10750.00000	102.78872	-322.65435	102.78872
10800.00000	102.70532	-325.68127	102.70532
10850.00000	102.68271	-329.30337	102.68271
10900.00000	102.67178	-331.23057	102.67178
10950.00000	102.56958	-332.60694	102.56958
11000.00000	102.37435	-334.02573	102.37435
11050.00000	101.90360	-335.59970	101.90360
11100.00000	101.49131	-338.01997	101.49131
11150.00000	100.97281	-340.51625	100.97281
11200.00000	100.62214	-343.71616	100.62214
11250.00000	100.23168	-347.21621	100.23168
11300.00000	99.93747	-350.19523	99.93747
11350.00000	99.72109	-352.03844	99.72109
11400.00000	99.35925	-353.25063	99.35925
11450.00000	99.08201	-354.34746	99.08201
11500.00000	98.76241	-353.88492	98.76241
11550.00000	98.15914	-354.38472	98.15914
11600.00000	97.74358	-356.14718	97.74358
11650.00000	97.25042	-356.84614	97.25042
11700.00000	96.92597	-358.82122	96.92597
11750.00000	96.77734	-360.61167	96.77734
11800.00000	96.62014	-362.31584	96.62014
11850.00000	96.56380	-361.60622	96.56380
11900.00000	96.16380	-361.45085	96.16380
11950.00000	95.91059	-360.29233	95.91059
12000.00000	95.40762	-359.63681	95.40762
12050.00000	94.85961	-359.20742	94.85961
12100.00000	94.46387	-361.44707	94.46387
12150.00000	94.09738	-363.11758	94.09738
12200.00000	93.99982	-364.97253	93.99982
12250.00000	93.86617	-365.50201	93.86617
12300.00000	94.98764	-365.48457	94.98764
12350.00000	93.70181	-364.28036	93.70181
12400.00000	93.41737	-362.04557	93.41737
12450.00000	93.10987	-360.50604	93.10987
12500.00000	92.58805	-359.97151	92.58805
12550.00000	92.15935	-360.19071	92.15935
12600.00000	91.80250	-361.49574	91.80250
12650.00000	91.89234	-361.57482	91.89234
12700.00000	91.80065	-360.94735	91.80065
12750.00000	91.88324	-359.43712	91.88324
12800.00000	91.70639	-356.70345	91.70639
12850.00000	91.30705	-354.02227	91.30705
12900.00000	91.08801	-353.03281	91.08801
12950.00000	91.00826	-353.05448	91.00826
13000.00000	90.90462	-353.93164	90.90462
13050.00000	91.07831	-352.96765	91.07831
13100.00000	91.27707	-353.16390	91.27707
13150.00000	91.59362	-352.48123	91.59362
13200.00000	91.69261	-348.95855	91.69261
13250.00000	91.67395	-346.96883	91.67395
13300.00000	91.41866	-344.05199	91.41866
13350.00000	91.34075	-344.47243	91.34075
13400.00000	91.34777	-345.22077	91.34777
13450.00000	91.34395	-345.73380	91.34395
13500.00000	91.71276	-345.12793	91.71276
13550.00000	91.84287	-345.31992	91.84287
13600.00000	92.19299	-343.20538	92.19299
13650.00000	92.42869	-341.40997	92.42869
13700.00000	92.35207	-340.26032	92.35207
13750.00000	92.30323	-338.97427	92.30323
13800.00000	92.27149	-340.61810	92.27149
13850.00000	92.41303	-341.56202	92.41303
13900.00000	92.54081	-341.35394	92.54081
13950.00000	92.94114	-341.50099	92.94114
14000.00000	93.45284	-339.62445	93.45284
14050.00000	93.73243	-339.78956	93.73243
14100.00000	93.74181	-338.41823	93.74181
14150.00000	94.05092	-338.41496	94.05092
14200.00000	94.35761	-338.38957	94.35761
14250.00000	94.96271	-336.79413	94.96271
14300.00000	95.33626	-336.97931	95.33626
14350.00000	95.60567	-334.70057	95.60567
14400.00000	95.50330	-334.68663	95.50330
14450.00000	95.71818	-333.49264	95.71818
14500.00000	95.98979	-335.31724	95.98979
14550.00000	96.52580	-335.88641	96.52580
14600.00000	96.91957	-337.73876	96.91957
14650.00000	97.70752	-336.00268	97.70752
14700.00000	98.17782	-339.75872	98.17782
14750.00000	98.54585	-339.34641	98.54585
14800.00000	98.82133	-339.57003	98.82133
14850.00000	99.41553	-340.50702	99.41553
14900.00000	99.92678	-342.05218	99.92678
14950.00000	100.36595	-343.81957	100.36595
15000.00000	100.83220	-345.98393	100.83220
15050.00000	101.13888	-347.06792	101.13888
15100.00000	101.68629	-348.54158	101.68629
15150.00000	102.31386	-351.19099	102.31386
15200.00000	102.64610	-351.55213	102.64610
15250.00000	102.86887	-354.18196	102.86887
15300.00000	103.39879	-356.80248	103.39879
15350.00000	103.75168	-360.47115	103.75168
15400.00000	104.10322	-362.09601	104.10322
15450.00000	104.47572	-365.01592	104.47572
15500.00000	104.90743	-367.86958	104.90743
15550.00000	105.24807	-371.39679	105.24807
15600.00000	105.51657	-375.54008	105.51657
15650.00000	106.02311	-377.24736	106.02311
15700.00000	106.19411	-381.44483	106.19411
15750.00000	106.52486	-383.80028	106.52486
15800.00000	106.70063	-386.01067	106.70063
15850.00000	106.81829	-389.24992	106.81829
15900.00000	106.91678	-393.19600	106.91678
15950.00000	107.18161	-396.35336	107.18161
16000.00000	107.34243	-398.85693	107.34243
16050.00000	107.51732	-401.43101	107.51732
16100.00000	107.51278	-404.85851	107.51278
16150.00000	107.65592	-407.69673	107.65592
16200.00000	107.84302	-410.91033	107.84302
16250.00000	108.02269	-412.82744	108.02269
16300.00000	108.27009	-415.11949	108.27009
16350.00000	108.35623	-417.78038	108.35623
16400.00000	108.50463	-420.21413	108.50463
16450.00000	108.67344	-422.63311	108.67344
16500.00000	108.76217	-425.26143	108.76217
16550.00000	108.95507	-428.51551	108.95507
16600.00000	109.13528	-431.02916	109.13528
16650.00000	109.26424	-433.56700	109.26424
16700.00000	109.48310	-435.54641	109.48310
16750.00000	109.50391	-438.19504	109.50391
16800.00000	109.63520	-441.16190	109.63520
16850.00000	109.86681	-443.82100	109.86681
16900.00000	110.06203	-446.54137	110.06203
16950.00000	110.23237	-448.96238	110.23237
17000.00000	110.26858	-451.55339	110.26858
17050.00000	110.43076	-453.63454	110.43076
17100.00000	110.52406	-455.51959	110.52406
17150.00000	110.84770	-458.90471	110.84770
17200.00000	111.01303	-461.25922	111.01303
17250.00000	111.10944	-464.34031	111.10944
17300.00000	111.33431	-467.10594	111.33431
17350.00000	111.37292	-469.66933	111.37292
17400.00000	111.63630	-472.61341	111.63630
17450.00000	111.71752	-475.79235	111.71752
17500.00000	111.90827	-478.71053	111.90827
17550.00000	112.05706	-481.82228	112.05706
17600.00000	112.29609	-484.38341	112.29609
17650.00000	112.40805	-488.22408	112.40805
17700.00000	112.49263	-491.44942	112.49263
17750.00000	112.73922	-494.08144	112.73922
17800.00000	112.74815	-498.02052	112.74815
17850.00000	112.87268	-500.73206	112.87268
17900.00000	112.92610	-504.08867	112.92610
17950.00000	113.08316	-507.72012	113.08316
18000.00000	113.14429	-511.59659	113.14429
18050.00000	113.35942	-514.33684	113.35942
18100.00000	113.34138	-518.08498	113.34138
18150.00000	113.37538	-520.71158	113.37538
18200.00000	113.37453	-524.67645	113.37453
18250.00000	113.49392	-527.24634	113.49392
18300.00000	113.59158	-530.44848	113.59158
18350.00000	113.62011	-533.55430	113.62011
18400.00000	113.59876	-537.12671	113.59876
18450.00000	113.61387	-541.58413	113.61387
18500.00000	113.66698	-544.63742	113.66698
18550.00000	113.68327	-547.38694	113.68327
18600.00000	113.79498	-551.14141	113.79498
18650.00000	113.69169	-554.18233	113.69169
18700.00000	113.69509	-557.97161	113.69509
18750.00000	113.75464	-561.24411	113.75464
18800.00000	113.86653	-564.06402	113.86653
18850.00000	113.75460	-567.74283	113.75460
18900.00000	113.72948	-570.96588	113.72948
18950.00000	113.73600	-574.93003	113.73600
19000.00000	113.56802	-578.00222	113.56802
19050.00000	113.67382	-581.58073	113.67382
19100.00000	113.58069	-584.79330	113.58069
19150.00000	113.66101	-587.99685	113.66101
19200.00000	113.56969	-591.09997	113.56969
19250.00000	113.49120	-595.61235	113.49120
19300.00000	113.35261	-598.31899	113.35261
19350.00000	113.29999	-601.75015	113.29999
19400.00000	113.16520	-604.90822	113.16520
19450.00000	113.16228	-607.69681	113.16228
19500.00000	112.97458	-611.76157	112.97458
19550.00000	112.90104	-614.94431	112.90104
19600.00000	112.85327	-618.66313	112.85327
19650.00000	112.67994	-621.39351	112.67994
19700.00000	112.43916	-624.67201	112.43916
19750.00000	112.29570	-627.20457	112.29570
19800.00000	112.24793	-631.18735	112.24793
19850.00000	112.12587	-633.88036	112.12587
19900.00000	111.91998	-637.63670	111.91998
19950.00000	111.74105	-640.45496	111.74105
20000.00000	111.59108	-643.47630	111.59108
20050.00000	111.42625	-646.34740	111.42625
20100.00000	111.16953	-649.33206	111.16953
20150.00000	111.04727	-651.24632	111.04727
20200.00000	110.81698	-654.74833	110.81698
20250.00000	110.56847	-657.29290	110.56847
20300.00000	110.28921	-659.96297	110.28921
20350.00000	110.16276	-662.68063	110.16276
20400.00000	109.87029	-664.27642	109.87029
20450.00000	109.56552	-666.69426	109.56552
20500.00000	109.39974	-669.24720	109.39974
20550.00000	108.95012	-670.55887	108.95012
20600.00000	108.79656	-672.22451	108.79656
20650.00000	108.56869	-673.94449	108.56869
20700.00000	108.28385	-675.41337	108.28385
20750.00000	108.11836	-676.68094	108.11836
20800.00000	107.86560	-677.57920	107.86560
20850.00000	107.73469	-678.69263	107.73469
20900.00000	107.49897	-679.53055	107.49897
20950.00000	107.33134	-679.88951	107.33134
21000.00000	107.21526	-680.41812	107.21526
21050.00000	107.26338	-680.67549	107.26338
21100.00000	107.17520	-680.86824	107.17520
21150.00000	107.22991	-681.61298	107.22991
21200.00000	107.29295	-681.91639	107.29295
21250.00000	107.33876	-683.85891	107.33876
21300.00000	107.46602	-684.23079	107.46602
21350.00000	107.53211	-685.12949	107.53211
21400.00000	107.60663	-686.82493	107.60663
21450.00000	107.72537	-688.36585	107.72537
21500.00000	107.82960	-690.32538	107.82960
21550.00000	107.81310	-691.66591	107.81310
21600.00000	107.96910	-693.58929	107.96910
21650.00000	107.99817	-695.65238	107.99817
21700.00000	108.04439	-697.24243	108.04439
21750.00000	108.10995	-699.14281	108.10995
21800.00000	108.16346	-701.04772	108.16346
21850.00000	108.11841	-702.88162	108.11841
21900.00000	108.19392	-704.83556	108.19392
21950.00000	108.22109	-706.58806	108.22109
22000.00000	108.30024	-708.39678	108.30024
22050.00000	108.31204	-709.79527	108.31204
22100.00000	108.31446	-711.95052	108.31446
22150.00000	108.32336	-713.66694	108.32336
22200.00000	108.42672	-715.62106	108.42672
22250.00000	108.39569	-716.88190	108.39569
22300.00000	108.30231	-718.87732	108.30231
22350.00000	108.47390	-720.80073	108.47390
22400.00000	108.49905	-722.75474	108.49905
22450.00000	108.49531	-724.28851	108.49531
22500.00000	108.43747	-725.00201	108.43747
22550.00000	108.44054	-727.08028	108.44054
22600.00000	108.48288	-729.55729	108.48288
22650.00000	108.53717	-730.95569	108.53717
22700.00000	108.53574	-732.42006	108.53574
22750.00000	108.53649	-732.20930	108.53649
22800.00000	108.61101	-735.89119	108.61101
22850.00000	108.73253	-738.08450	108.73253
22900.00000	108.78358	-738.25858	108.78358
22950.00000	108.86273	-739.96557	108.86273
23000.00000	108.90927	-740.91600	108.90927
23050.00000	108.95319	-743.56060	108.95319
23100.00000	109.14215	-744.23183	109.14215
23150.00000	109.06545	-745.16597	109.06545
23200.00000	109.27396	-748.08002	109.27396
23250.00000	109.23112	-750.47014	109.23112
23300.00000	109.57482	-752.41219	109.57482
23350.00000	109.40440	-754.20125	109.40440
23400.00000	109.51986	-756.19614	109.51986
23450.00000	109.75349	-758.42578	109.75349
23500.00000	109.69395	-759.61068	109.69395
23550.00000	109.77516	-760.28854	109.77516
23600.00000	109.81563	-764.17382	109.81563
23650.00000	109.99545	-765.72458	109.99545
23700.00000	110.27414	-769.99506	110.27414
23750.00000	110.27432	-770.97423	110.27432
23800.00000	110.08241	-772.12488	110.08241
23850.00000	110.29045	-774.05722	110.29045
23900.00000	110.71891	-776.79763	110.71891
23950.00000	110.48829	-780.35814	110.48829
24000.00000	110.41419	-783.95107	110.41419
24050.00000	110.61498	-784.49816	110.61498
24100.00000	110.90200	-789.15253	110.90200
24150.00000	110.93643	-791.65209	110.93643
24200.00000	110.90470	-795.68798	110.90470
24250.00000	110.56505	-796.62722	110.56505
24300.00000	110.90375	-799.88413	110.90375
24350.00000	110.77099	-803.20280	110.77099
24400.00000	110.69762	-806.82427	110.69762
24450.00000	110.44146	-809.05916	110.44146
24500.00000	110.82681	-811.33223	110.82681
24550.00000	110.59666	-456.74317	110.59666
24600.00000	111.01402	-98.20122	111.01402
24650.00000	110.55998	257.28034	110.55998
24700.00000	110.35483	616.49387	110.35483
24750.00000	110.32183	971.43455	110.32183
24800.00000	110.23104	1329.15640	110.23104
24850.00000	109.79582	1687.52255	109.79582
24900.00000	109.78202	2045.72155	109.78202
24950.00000	109.78521	2400.74870	109.78521
25000.00000	109.78299	2394.20878	109.78299
25050.00000	109.66948	2394.41464	109.66948
25100.00000	109.07914	2390.82389	109.07914
25150.00000	109.33171	2390.12099	109.33171
25200.00000	108.98405	2386.12242	108.98405
25250.00000	109.04084	2385.53612	109.04084
25300.00000	108.90290	2383.59863	108.90290
25350.00000	108.75976	2376.42613	108.75976
25400.00000	108.60926	2373.50738	108.60926
25450.00000	108.55028	2371.36193	108.55028
25500.00000	108.19934	2369.91718	108.19934
25550.00000	108.09492	2366.05198	108.09492
25600.00000	108.07175	2363.82042	108.07175
25650.00000	107.82717	2361.90006	107.82717
25700.00000	107.68964	2358.65125	107.68964
25750.00000	107.32983	2355.45012	107.32983
25800.00000	107.13747	2352.11947	107.13747
25850.00000	106.92961	2349.46284	106.92961
25900.00000	106.75637	2345.67543	106.75637
25950.00000	106.36374	2346.94957	106.36374
26000.00000	106.25113	2342.40271	106.25113
26050.00000	106.02747	2340.28542	106.02747
26100.00000	105.80943	2337.92152	105.80943
26150.00000	105.59870	2335.79799	105.59870
26200.00000	105.49154	2333.54585	105.49154
26250.00000	105.22171	2330.65774	105.22171
26300.00000	105.12813	2327.97339	105.12813
26350.00000	104.50504	2327.83509	104.50504
26400.00000	104.38713	2325.64425	104.38713
26450.00000	104.42972	2322.27279	104.42972
26500.00000	104.02976	2320.34273	104.02976
26550.00000	103.77075	2316.28560	103.77075
26600.00000	103.53503	2314.17699	103.53503
26650.00000	103.35043	2315.74674	103.35043
26700.00000	103.26918	2313.29761	103.26918
26750.00000	102.84401	2311.22759	102.84401
26800.00000	102.64396	2306.72811	102.64396
26850.00000	102.76331	2307.26412	102.76331
26900.00000	102.58497	2306.71436	102.58497
26950.00000	102.57180	2303.96882	102.57180
27000.00000	101.98529	2304.17065	101.98529
27050.00000	102.17238	2302.09427	102.17238
27100.00000	101.83564	2302.00419	101.83564
27150.00000	101.70237	2299.03216	101.70237
27200.00000	101.82137	2298.91368	101.82137
27250.00000	101.25546	2298.88914	101.25546
27300.00000	101.10970	2296.53964	101.10970
27350.00000	101.27332	2297.67366	101.27332
27400.00000	100.96739	2295.63822	100.96739
27450.00000	100.90776	2295.16784	100.90776
27500.00000	100.94784	2294.40849	100.94784
27550.00000	100.99039	2293.09582	100.99039
27600.00000	101.20225	2290.71601	101.20225
27650.00000	100.83314	2291.24993	100.83314
27700.00000	101.09327	2287.81930	101.09327
27750.00000	101.13698	2286.08910	101.13698
27800.00000	101.35452	2283.46002	101.35452
27850.00000	101.67269	2286.26711	101.67269
27900.00000	101.36932	2284.91687	101.36932
27950.00000	100.93784	2282.68628	100.93784
28000.00000	101.14581	2282.39285	101.14581
28050.00000	101.83083	2279.99725	101.83083
28100.00000	101.38146	2278.47795	101.38146
28150.00000	101.62508	2277.48983	101.62508
28200.00000	101.92483	2273.05958	101.92483
28250.00000	101.73989	2270.98579	101.73989
28300.00000	101.61348	2271.81325	101.61348
28350.00000	101.99671	2270.08286	101.99671
28400.00000	102.01042	2269.59808	102.01042
28450.00000	102.63809	2266.68238	102.63809
28500.00000	102.32943	2265.60123	102.32943
28550.00000	102.38702	2266.22587	102.38702
28600.00000	102.60250	2263.20800	102.60250
28650.00000	102.92503	2258.85034	102.92503
28700.00000	102.91078	2259.45099	102.91078
28750.00000	103.68232	2259.12129	103.68232
28800.00000	103.56038	2256.19416	103.56038
28850.00000	103.09404	2251.51184	103.09404
28900.00000	103.40141	2250.33512	103.40141
28950.00000	103.46751	2249.77210	103.46751
29000.00000	103.83185	2247.18585	103.83185
29050.00000	103.71966	2247.16801	103.71966
29100.00000	103.83480	2245.91577	103.83480
29150.00000	103.82845	2243.43192	103.82845
29200.00000	103.89067	2240.38406	103.89067
29250.00000	104.33182	2238.70371	104.33182
29300.00000	104.15337	2235.90132	104.15337
29350.00000	104.65777	2232.61781	104.65777
29400.00000	104.52578	2231.22678	104.52578
29450.00000	104.52648	2229.37593	104.52648
29500.00000	104.95168	2227.31572	104.95168
29550.00000	104.72204	2222.32212	104.72204
29600.00000	104.65693	2222.24561	104.65693
29650.00000	104.79436	2218.74898	104.79436
29700.00000	104.75988	2218.74282	104.75988
29750.00000	104.69391	2217.50914	104.69391
29800.00000	104.44985	2214.39053	104.44985
29850.00000	104.56896	2211.85940	104.56896
29900.00000	104.80050	2211.71817	104.80050
29950.00000	103.97471	2210.33504	103.97471
30000.00000	104.40463	2210.30388	104.40463
30050.00000	104.45574	2207.44233	104.45574
30100.00000	104.12814	2208.57330	104.12814
30150.00000	104.22751	2204.54240	104.22751
30200.00000	104.16537	2203.20131	104.16537
30250.00000	103.95243	2203.40232	103.95243
30300.00000	103.63034	2203.54047	103.63034
30350.00000	103.75266	2204.85526	103.75266
30400.00000	103.71149	2202.73390	103.71149
30450.00000	103.32797	2202.65671	103.32797
30500.00000	103.36528	2202.02302	103.36528
30550.00000	103.21113	2204.02404	103.21113
30600.00000	103.23960	2204.62853	103.23960
30650.00000	103.17706	2204.99116	103.17706
30700.00000	103.32398	2204.90659	103.32398
30750.00000	103.12854	2207.23298	103.12854
30800.00000	103.31327	2208.17561	103.31327
30850.00000	103.47227	2210.11902	103.47227
30900.00000	103.40904	2212.39966	103.40904
30950.00000	103.84044	2212.06723	103.84044
31000.00000	104.09810	2212.37394	104.09810
31050.00000	104.43910	2214.20247	104.43910
31100.00000	104.88151	2215.25340	104.88151
31150.00000	104.88307	2215.41448	104.88307
31200.00000	105.65471	2215.23778	105.65471
31250.00000	105.99395	2215.17320	105.99395
31300.00000	106.38033	2214.53384	106.38033
31350.00000	106.90873	2213.93520	106.90873
31400.00000	107.13209	2211.96425	107.13209
31450.00000	107.63508	2210.68475	107.63508
31500.00000	107.97651	2208.03457	107.97651
31550.00000	108.36259	2206.63753	108.36259
31600.00000	108.88073	2202.93570	108.88073
31650.00000	109.14360	2200.82400	109.14360
31700.00000	109.46151	2198.81168	109.46151
31750.00000	109.79708	2196.75551	109.79708
31800.00000	109.98232	2192.89982	109.98232
31850.00000	110.30247	2189.60606	110.30247
31900.00000	110.29066	2186.63723	110.29066
31950.00000	110.55418	2183.29475	110.55418
32000.00000	110.71384	2179.72065	110.71384
32050.00000	110.80910	2176.81492	110.80910
32100.00000	110.91326	2172.99645	110.91326
32150.00000	110.99415	2170.79612	110.99415
32200.00000	111.14234	2166.80586	111.14234
32250.00000	111.09624	2162.91476	111.09624
32300.00000	111.07731	2160.31500	111.07731
32350.00000	111.08330	2157.49053	111.08330
32400.00000	111.21570	2154.62022	111.21570
32450.00000	111.18767	2150.76230	111.18767
32500.00000	111.18699	2148.41989	111.18699
32550.00000	111.28486	2144.17982	111.28486
32600.00000	111.16343	2141.86793	111.16343
32650.00000	111.24376	2138.55610	111.24376
32700.00000	111.09662	2135.29698	111.09662
32750.00000	111.01903	2131.73834	111.01903
32800.00000	111.11291	2129.61475	111.11291
32850.00000	111.13678	2126.41359	111.13678
32900.00000	110.91061	2122.34513	110.91061
32950.00000	110.78880	2119.13462	110.78880
33000.00000	110.73085	2118.05068	110.73085
33050.00000	110.65939	2113.85010	110.65939
33100.00000	110.64351	2111.18684	110.64351
33150.00000	110.63391	2108.94649	110.63391
33200.00000	110.75699	2107.68348	110.75699
33250.00000	110.54646	2104.99557	110.54646
33300.00000	110.51420	2101.47119	110.51420
33350.00000	110.39952	2099.03737	110.39952
33400.00000	110.32223	2097.02271	110.32223
33450.00000	110.39886	2093.62479	110.39886
33500.00000	110.62282	2092.93632	110.62282
33550.00000	110.27519	2088.05920	110.27519
33600.00000	110.50877	2086.03563	110.50877
33650.00000	110.49248	2082.71122	110.49248
33700.00000	110.38392	2080.73840	110.38392
33750.00000	110.23890	2078.15458	110.23890
33800.00000	110.34015	2075.30976	110.34015
33850.00000	109.98688	2073.28978	109.98688
33900.00000	110.26423	2070.19149	110.26423
33950.00000	110.35398	2068.04235	110.35398
34000.00000	110.19730	2064.80413	110.19730
34050.00000	110.07063	2061.79248	110.07063
34100.00000	109.98400	2060.54869	109.98400
34150.00000	110.01056	2057.29281	110.01056
34200.00000	109.99954	2056.83412	109.99954
34250.00000	109.92298	2053.26663	109.92298
34300.00000	109.87042	2050.87450	109.87042
34350.00000	109.92637	2048.67203	109.92637
34400.00000	109.69128	2048.73514	109.69128
34450.00000	109.80744	2043.93527	109.80744
34500.00000	109.61825	2044.06256	109.61825
34550.00000	109.88168	2042.28534	109.88168
34600.00000	109.47800	2039.98615	109.47800
34650.00000	109.97914	2041.29696	109.97914
34700.00000	109.68575	2040.74632	109.68575
34750.00000	109.90167	2034.62777	109.90167
34800.00000	110.11180	2035.53303	110.11180
34850.00000	110.26875	2037.29416	110.26875
34900.00000	110.66365	2033.85736	110.66365
34950.00000	110.74731	2032.95759	110.74731
35000.00000	110.87314	2030.96113	110.87314
35050.00000	111.17643	2030.84452	111.17643
35100.00000	111.52286	2027.13026	111.52286
35150.00000	111.43503	2027.29857	111.43503
35200.00000	111.70973	2023.52665	111.70973
35250.00000	111.92813	2022.01962	111.92813
35300.00000	112.27907	2019.54432	112.27907
35350.00000	112.56269	2017.58670	112.56269
35400.00000	112.74128	2015.73851	112.74128
35450.00000	112.97819	2013.77696	112.97819
35500.00000	113.00065	2012.03766	113.00065
35550.00000	113.56576	2011.60433	113.56576
35600.00000	113.76280	2008.19350	113.76280
35650.00000	114.06904	2006.53067	114.06904
35700.00000	114.26194	2004.09236	114.26194
35750.00000	114.35132	2002.78787	114.35132
35800.00000	114.75196	2001.86574	114.75196
35850.00000	115.18901	1997.98582	115.18901
35900.00000	115.41063	1996.09482	115.41063
35950.00000	115.84177	1993.35042	115.84177
36000.00000	115.95452	1991.46636	115.95452
36050.00000	116.26855	1988.29148	116.26855
36100.00000	116.56549	1986.20380	116.56549
36150.00000	116.65296	1984.20477	116.65296
36200.00000	116.93389	1982.13381	116.93389
36250.00000	117.17650	1979.74031	117.17650
36300.00000	117.28368	1978.28235	117.28368
36350.00000	117.82107	1976.30514	117.82107
36400.00000	118.10838	1974.13379	118.10838
36450.00000	118.05075	1971.54115	118.05075
36500.00000	118.63695	1970.20860	118.63695
36550.00000	118.79176	1966.63314	118.79176
36600.00000	119.09656	1964.54017	119.09656
36650.00000	119.46586	1962.81510	119.46586
36700.00000	119.75233	1959.57438	119.75233
36750.00000	120.01246	1956.99959	120.01246
36800.00000	120.22209	1955.27694	120.22209
36850.00000	120.37456	1952.52541	120.37456
36900.00000	120.84483	1949.76929	120.84483
36950.00000	120.93141	1947.04648	120.93141
37000.00000	120.95358	1945.09790	120.95358
37050.00000	121.22797	1943.05967	121.22797
37100.00000	121.67428	1939.52265	121.67428
37150.00000	121.95516	1936.15617	121.95516
37200.00000	122.39998	1934.57770	122.39998
37250.00000	122.24482	1931.26570	122.24482
37300.00000	122.54550	1928.39199	122.54550
37350.00000	122.99660	1925.64558	122.99660
37400.00000	122.94807	1923.07666	122.94807
37450.00000	123.06964	1920.47232	123.06964
37500.00000	123.63831	1916.40097	123.63831
37550.00000	123.48534	1913.78859	123.48534
37600.00000	123.70190	1910.57113	123.70190
37650.00000	123.80417	1907.80710	123.80417
37700.00000	124.03716	1903.52815	124.03716
37750.00000	124.14980	1901.10271	124.14980
37800.00000	124.16017	1897.00009	124.16017
37850.00000	124.29170	1892.40410	124.29170
37900.00000	124.35333	1889.71691	124.35333
37950.00000	124.45805	1886.83371	124.45805
38000.00000	124.37458	1883.90281	124.37458
38050.00000	124.52690	1880.05400	124.52690
38100.00000	124.60858	1876.29396	124.60858
38150.00000	124.54094	1872.26587	124.54094
38200.00000	124.65491	1868.26696	124.65491
38250.00000	124.59940	1865.23986	124.59940
38300.00000	124.66385	1861.03550	124.66385
38350.00000	124.56982	1858.19370	124.56982
38400.00000	124.57097	1854.48104	124.57097
38450.00000	124.59910	1850.36046	124.59910
38500.00000	124.60301	1846.45006	124.60301
38550.00000	124.65674	1843.51844	124.65674
38600.00000	124.67534	1839.65962	124.67534
38650.00000	124.68526	1835.49482	124.68526
38700.00000	124.62891	1831.48603	124.62891
38750.00000	124.66943	1827.79716	124.66943
38800.00000	124.69851	1824.08117	124.69851
38850.00000	124.68749	1819.55124	124.68749
38900.00000	124.73270	1815.61912	124.73270
38950.00000	124.68912	1811.00807	124.68912
39000.00000	124.68134	1806.67885	124.68134
39050.00000	124.72416	1802.44440	124.72416
39100.00000	124.60837	1797.84503	124.60837
39150.00000	124.55990	1793.07276	124.55990
39200.00000	124.54052	1788.65004	124.54052
39250.00000	124.49015	1783.57068	124.49015
39300.00000	124.39911	1778.66417	124.39911
39350.00000	124.29111	1774.50562	124.29111
39400.00000	124.17971	1769.29401	124.17971
39450.00000	123.98545	1764.88611	123.98545
39500.00000	123.89862	1759.62706	123.89862
39550.00000	123.68719	1754.72435	123.68719
39600.00000	123.41376	1750.04817	123.41376
39650.00000	123.24184	1745.76397	123.24184
39700.00000	122.98769	1741.17445	122.98769
39750.00000	122.78415	1736.27442	122.78415
39800.00000	122.51908	1732.03790	122.51908
39850.00000	122.20773	1727.78646	122.20773
39900.00000	121.95609	1723.87956	121.95609
39950.00000	121.68160	1720.03497	121.68160
40000.00000	121.23721	1717.18197	121.23721
40050.00000	121.06322	1712.40141	121.06322
40100.00000	120.79535	1708.69647	120.79535
40150.00000	120.46861	1705.11387	120.46861
40200.00000	120.16442	1701.63701	120.16442
40250.00000	119.79205	1698.56811	119.79205
40300.00000	119.64021	1695.80550	119.64021
40350.00000	119.15836	1692.98865	119.15836
40400.00000	118.87744	1690.20603	118.87744
40450.00000	118.61750	1687.66912	118.61750
40500.00000	118.42881	1685.80247	118.42881
40550.00000	118.18460	1682.72025	118.18460
40600.00000	117.90980	1681.00600	117.90980
40650.00000	117.64482	1679.41047	117.64482
40700.00000	117.27787	1678.08233	117.27787
40750.00000	117.27739	1676.11613	117.27739
40800.00000	117.03936	1674.47048	117.03936
40850.00000	116.81175	1673.92637	116.81175
40900.00000	116.65434	1671.64635	116.65434
40950.00000	116.37401	1671.57843	116.37401
41000.00000	116.12841	1670.59152	116.12841
41050.00000	116.20093	1670.19749	116.20093
41100.00000	116.22989	1668.53517	116.22989
41150.00000	116.25816	1669.88798	116.25816
41200.00000	116.26251	1668.41004	116.26251
41250.00000	116.21151	1665.86886	116.21151
41300.00000	116.02749	1666.94451	116.02749
41350.00000	116.19723	1667.61318	116.19723
41400.00000	116.28772	1662.27418	116.28772
41450.00000	116.46015	1664.75264	116.46015
41500.00000	116.50402	1663.36751	116.50402
41550.00000	116.52634	1666.53912	116.52634
41600.00000	116.36143	1664.17453	116.36143
41650.00000	116.87183	1661.96551	116.87183
41700.00000	117.17680	1662.03987	117.17680
41750.00000	117.18709	1665.70376	117.18709
41800.00000	116.45787	1659.47625	116.45787
41850.00000	116.59287	1660.40824	116.59287
41900.00000	116.63722	1659.96362	116.63722
41950.00000	118.02146	1664.21447	118.02146
42000.00000	117.17155	1657.72872	117.17155
42050.00000	116.38384	1656.74697	116.38384
42100.00000	116.97469	1655.85114	116.97469
42150.00000	116.63759	1650.47918	116.63759
42200.00000	116.61761	1656.66715	116.61761
42250.00000	116.75680	1655.12779	116.75680
42300.00000	115.78341	1651.49124	115.78341
42350.00000	116.56365	1652.63086	116.56365
42400.00000	116.36192	1651.88004	116.36192
42450.00000	116.78015	1646.45502	116.78015
42500.00000	116.18669	1646.80067	116.18669
42550.00000	116.32970	1656.86456	116.32970
42600.00000	115.93180	1648.25258	115.93180
42650.00000	115.48139	1649.24979	115.48139
42700.00000	115.31483	1647.08108	115.31483
42750.00000	116.10488	1645.11037	116.10488
42800.00000	115.37673	1637.95341	115.37673
42850.00000	114.95401	1636.41741	114.95401
42900.00000	115.89049	1641.16407	115.89049
42950.00000	114.85329	1637.07485	114.85329
43000.00000	115.27600	1627.02601	115.27600
43050.00000	114.38421	1626.46113	114.38421
43100.00000	114.72599	1629.89840	114.72599
43150.00000	113.83393	1627.18362	113.83393
43200.00000	113.78723	1622.87854	113.78723
43250.00000	113.89620	1621.87326	113.89620
43300.00000	113.71108	1618.38419	113.71108
43350.00000	114.31358	1615.09541	114.31358
43400.00000	113.53113	1612.85061	113.53113
43450.00000	114.23874	1611.69234	114.23874
43500.00000	112.77931	1603.57505	112.77931
43550.00000	113.35203	1602.34545	113.35203
43600.00000	112.76430	1596.69531	112.76430
43650.00000	112.93294	1587.48231	112.93294
43700.00000	112.34179	1587.29850	112.34179
43750.00000	111.49266	1586.01040	111.49266
43800.00000	111.59936	1578.57020	111.59936
43850.00000	111.80392	1574.07956	111.80392
43900.00000	111.76623	1571.48127	111.76623
43950.00000	111.14498	1567.12530	111.14498
44000.00000	110.39707	1563.09371	110.39707
44050.00000	110.57872	1558.92037	110.57872
44100.00000	110.22169	1547.47509	110.22169
44150.00000	109.68462	1550.70886	109.68462
44200.00000	109.15316	1548.52969	109.15316
44250.00000	109.32849	1543.31412	109.32849
44300.00000	109.25610	1536.23505	109.25610
44350.00000	107.94312	1531.76256	107.94312
44400.00000	108.59652	1528.85567	108.59652
44450.00000	108.45812	1526.20433	108.45812
44500.00000	107.63830	1523.35670	107.63830
44550.00000	108.71202	1513.94660	108.71202
44600.00000	107.23125	1514.56373	107.23125
44650.00000	106.42048	1506.22124	106.42048
44700.00000	106.47087	1503.75034	106.47087
44750.00000	106.23051	1502.85445	106.23051
44800.00000	106.44092	1496.91851	106.44092
44850.00000	106.02846	1493.04388	106.02846
44900.00000	105.69975	1491.25657	105.69975
44950.00000	105.80743	1486.88501	105.80743
45000.00000	105.37636	1478.73386	105.37636
45050.00000	103.73805	1485.75029	103.73805
45100.00000	103.95263	1475.56547	103.95263
45150.00000	104.49957	1466.77248	104.49957
45200.00000	103.22303	1465.98467	103.22303
45250.00000	103.62793	1463.80875	103.62793
45300.00000	103.46227	1458.67177	103.46227
45350.00000	102.73051	1450.37660	102.73051
45400.00000	102.24636	1451.35867	102.24636
45450.00000	102.54894	1440.97115	102.54894
45500.00000	101.01683	1435.62755	101.01683
45550.00000	100.87585	1438.22363	100.87585
45600.00000	102.17813	1427.42008	102.17813
45650.00000	99.89217	1422.26267	99.89217
45700.00000	99.91147	1420.69576	99.91147
45750.00000	100.64250	1419.78374	100.64250
45800.00000	98.79268	1411.37184	98.79268
45850.00000	99.04254	1410.52920	99.04254
45900.00000	98.45012	1407.36693	98.45012
45950.00000	97.65171	1409.82061	97.65171
46000.00000	97.08887	1389.32118	97.08887
46050.00000	96.79137	1389.06883	96.79137
46100.00000	96.32435	1392.41135	96.32435
46150.00000	95.90224	1392.62937	95.90224
46200.00000	93.29524	1379.17252	93.29524
46250.00000	95.41231	1380.69984	95.41231
46300.00000	93.22909	1375.17311	93.22909
46350.00000	94.50033	1367.45876	94.50033
46400.00000	92.56706	1368.42697	92.56706
46450.00000	91.17022	1367.10789	91.17022
46500.00000	91.84667	1364.19211	91.84667
46550.00000	90.58590	1366.53279	90.58590
46600.00000	91.07117	1370.30521	91.07117
46650.00000	90.33927	1366.52140	90.33927
46700.00000	88.18653	1368.28794	88.18653
46750.00000	88.74421	1377.48178	88.74421
46800.00000	86.62652	1370.34200	86.62652
46850.00000	87.90434	1021.43221	87.90434
46900.00000	87.77352	1014.52247	87.77352
46950.00000	87.42626	1017.02183	87.42626
47000.00000	87.35955	1017.26985	87.35955
47050.00000	89.08534	1011.11770	89.08534
47100.00000	87.46528	1008.22557	87.46528
47150.00000	88.27726	1001.19997	88.27726
47200.00000	87.63424	1009.59443	87.63424
47250.00000	88.90380	1008.92374	88.90380
47300.00000	87.95880	993.52898	87.95880
47350.00000	87.91064	649.79852	87.91064
47400.00000	86.36290	641.83443	86.36290
47450.00000	87.85258	644.28205	87.85258
47500.00000	86.15961	642.15405	86.15961
47550.00000	86.65258	286.93964	86.65258
47600.00000	87.44743	281.57965	87.44743
47650.00000	88.90304	280.49864	88.90304
47700.00000	86.45253	276.60568	86.45253
47750.00000	85.77432	281.21067	85.77432
47800.00000	86.83639	266.81162	86.83639
47850.00000	88.71877	-87.18795	88.71877
47900.00000	88.94856	-437.96544	88.94856
47950.00000	86.92761	-448.94898	86.92761
48000.00000	89.00351	-447.14859	89.00351
48050.00000	91.15322	-456.55501	91.15322
48100.00000	89.15964	-458.19619	89.15964
48150.00000	90.39678	-814.58461	90.39678
48200.00000	89.73860	-821.83194	89.73860
48250.00000	89.42923	-833.43071	89.42923
48300.00000	89.73561	-829.58981	89.73561
48350.00000	89.63947	-840.01272	89.63947
48400.00000	90.08963	-1187.84184	90.08963
48450.00000	91.51369	-1192.15553	91.51369
48500.00000	89.17152	-1201.75621	89.17152
48550.00000	88.98966	-1206.20305	88.98966
48600.00000	90.87089	-1559.69782	90.87089
48650.00000	92.25313	-1563.75478	92.25313
48700.00000	92.02109	-1576.74863	92.02109
48750.00000	90.54486	-1926.46896	90.54486
48800.00000	92.12818	-1937.12533	92.12818
48850.00000	91.66319	-1941.08877	91.66319
48900.00000	90.54516	-2300.93305	90.54516
48950.00000	91.67862	-2316.76956	91.67862
49000.00000	92.20185	-2320.64568	92.20185
49050.00000	91.16707	-2322.73888	91.16707
49100.00000	91.36240	-2690.31422	91.36240
49150.00000	93.70640	-3040.84832	93.70640
49200.00000	91.43670	-3058.91112	91.43670
49250.00000	93.06052	-3414.90610	93.06052
49300.00000	92.23214	-3072.73478	92.23214
49350.00000	91.41700	-3062.05795	91.41700
49400.00000	91.79238	-2721.95391	91.79238
49450.00000	90.42951	-2367.51772	90.42951
49500.00000	91.16204	-2018.31928	91.16204
49550.00000	90.70707	-1667.49399	90.70707
49600.00000	90.88352	-1671.50320	90.88352
49650.00000	93.10031	-1658.98358	93.10031
49700.00000	93.59157	-1337.03150	93.59157
49750.00000	94.47437	-1335.27031	94.47437
49800.00000	93.31894	-1343.51043	93.31894
49850.00000	94.47281	-1333.28934	94.47281
49900.00000	93.07331	-990.27218	93.07331
49950.00000	95.45441	-663.11987	95.45441
