---ACOUSTIC CALIBRATION---
Filename: C:\Data\AZH DATA\AZH32\RightPrimary.calib
Date: 8/27/2019 1:12:16 PM
Format: 4
Probe Tube Correction File: C:\Data\Probe Tube Calibrations\50_ProbeTube.calib
Experiment VIs: 850
EPL_CFTS.exe V12.0.1 (2012)
DAQmx V9.6

Attenuation (dB): 40.000000
Min Freq (Hz): 50.000000
Max Freq (Hz): 49950.000000
Freq Step (Hz): 50.000000
Sample Rate (Hz): 100000.000000
[Smoothing]
Method=None
MA.Iterations=0
MA.Length=0
Loess.Length=0
Loess.Type=Linear
Loess.Robust=FALSE


Freq(Hz)	Mag(dB)	Phase(deg)	Unsmoothed(dB)

50.00000	100.80088	357.82534	100.80088
100.00000	73.19468	410.97643	73.19468
150.00000	80.03800	502.24009	80.03800
200.00000	77.85555	376.26797	77.85555
250.00000	81.83047	471.27263	81.83047
300.00000	80.46536	402.10856	80.46536
350.00000	77.99749	375.66858	77.99749
400.00000	85.94509	417.48412	85.94509
450.00000	86.16215	371.41885	86.16215
500.00000	91.18384	348.02006	91.18384
550.00000	91.33294	363.41962	91.33294
600.00000	93.89260	360.02877	93.89260
650.00000	96.95311	347.44460	96.95311
700.00000	98.20463	329.80717	98.20463
750.00000	100.47989	315.03500	100.47989
800.00000	101.19280	289.36917	101.19280
850.00000	100.42436	273.05008	100.42436
900.00000	98.68239	256.49133	98.68239
950.00000	96.64465	257.55768	96.64465
1000.00000	95.24284	260.10463	95.24284
1050.00000	93.33669	279.41147	93.33669
1100.00000	96.25945	298.85546	96.25945
1150.00000	99.01649	299.96219	99.01649
1200.00000	101.82170	297.27985	101.82170
1250.00000	103.07181	288.75714	103.07181
1300.00000	104.86701	283.14430	104.86701
1350.00000	105.93318	273.17604	105.93318
1400.00000	106.84786	267.84377	106.84786
1450.00000	107.80030	260.73566	107.80030
1500.00000	108.85258	253.76000	108.85258
1550.00000	109.71664	244.61446	109.71664
1600.00000	111.04201	234.80133	111.04201
1650.00000	111.90849	217.32163	111.90849
1700.00000	110.59904	207.91033	110.59904
1750.00000	110.37433	202.63128	110.37433
1800.00000	109.91842	198.00146	109.91842
1850.00000	110.19609	198.53070	110.19609
1900.00000	111.46331	193.64032	111.46331
1950.00000	112.05231	180.17484	112.05231
2000.00000	110.96473	168.90380	110.96473
2050.00000	109.94400	175.13928	109.94400
2100.00000	111.81491	172.44030	111.81491
2150.00000	112.25134	161.10585	112.25134
2200.00000	112.17236	151.31849	112.17236
2250.00000	111.53074	144.33517	111.53074
2300.00000	111.62285	139.12409	111.62285
2350.00000	111.32927	132.49626	111.32927
2400.00000	111.03339	127.30299	111.03339
2450.00000	110.68598	120.48081	110.68598
2500.00000	110.27317	115.52518	110.27317
2550.00000	109.81982	109.97011	109.81982
2600.00000	109.19947	105.89530	109.19947
2650.00000	108.64105	102.27577	108.64105
2700.00000	108.06435	98.57777	108.06435
2750.00000	107.38921	95.35482	107.38921
2800.00000	106.62436	93.09102	106.62436
2850.00000	105.85923	91.54043	105.85923
2900.00000	105.07558	90.08293	105.07558
2950.00000	104.20741	90.33762	104.20741
3000.00000	103.21889	91.11195	103.21889
3050.00000	101.83601	93.38942	101.83601
3100.00000	100.68402	102.40480	100.68402
3150.00000	99.81549	114.36982	99.81549
3200.00000	100.30779	128.91251	100.30779
3250.00000	101.19468	140.22505	101.19468
3300.00000	102.79157	150.38709	102.79157
3350.00000	104.63890	156.86149	104.63890
3400.00000	106.73844	160.74448	106.73844
3450.00000	108.93621	159.92298	108.93621
3500.00000	110.96518	155.92145	110.96518
3550.00000	112.55717	149.63746	112.55717
3600.00000	113.96505	143.93805	113.96505
3650.00000	115.16523	137.04642	115.16523
3700.00000	116.31322	130.23707	116.31322
3750.00000	117.32973	122.43631	117.32973
3800.00000	118.16027	113.95295	118.16027
3850.00000	118.75731	106.10397	118.75731
3900.00000	119.32915	99.01692	119.32915
3950.00000	119.92069	91.92466	119.92069
4000.00000	120.49266	84.62996	120.49266
4050.00000	121.05866	77.39186	121.05866
4100.00000	121.66428	69.69933	121.66428
4150.00000	122.39937	61.20066	122.39937
4200.00000	122.79616	51.30060	122.79616
4250.00000	123.12747	41.05404	123.12747
4300.00000	123.25217	30.41370	123.25217
4350.00000	123.15987	19.96738	123.15987
4400.00000	122.91754	10.46216	122.91754
4450.00000	122.59771	 1.51867	122.59771
4500.00000	122.23727	-6.61773	122.23727
4550.00000	121.87816	-14.58708	121.87816
4600.00000	121.46790	-22.28931	121.46790
4650.00000	121.08011	-29.87016	121.08011
4700.00000	120.59715	-38.09859	120.59715
4750.00000	119.92688	-46.33569	119.92688
4800.00000	119.03049	-54.17747	119.03049
4850.00000	117.88839	-60.61926	117.88839
4900.00000	116.64499	-64.80488	116.64499
4950.00000	115.46840	-66.69969	115.46840
5000.00000	114.49615	-66.99684	114.49615
5050.00000	113.52147	-67.03155	113.52147
5100.00000	112.57855	-62.77712	112.57855
5150.00000	112.76692	-58.91804	112.76692
5200.00000	112.61320	-53.91511	112.61320
5250.00000	114.30889	-53.41130	114.30889
5300.00000	114.78091	-63.84451	114.78091
5350.00000	114.33659	-70.41664	114.33659
5400.00000	113.85979	-74.16140	113.85979
5450.00000	113.49109	-76.74213	113.49109
5500.00000	113.19150	-78.98541	113.19150
5550.00000	112.94844	-81.04108	112.94844
5600.00000	112.74883	-83.09678	112.74883
5650.00000	112.57016	-85.14860	112.57016
5700.00000	112.41511	-87.07788	112.41511
5750.00000	112.28351	-88.91432	112.28351
5800.00000	112.15367	-90.81915	112.15367
5850.00000	112.09284	-92.69760	112.09284
5900.00000	112.09373	-94.62191	112.09373
5950.00000	112.11015	-96.91998	112.11015
6000.00000	112.13949	-99.30127	112.13949
6050.00000	112.09180	-102.27340	112.09180
6100.00000	112.06194	-105.00119	112.06194
6150.00000	111.97589	-107.97367	111.97589
6200.00000	111.88608	-110.62861	111.88608
6250.00000	111.77946	-113.45606	111.77946
6300.00000	111.70301	-116.21399	111.70301
6350.00000	111.57361	-118.95768	111.57361
6400.00000	111.45510	-121.41730	111.45510
6450.00000	111.37623	-124.00355	111.37623
6500.00000	111.26424	-126.51247	111.26424
6550.00000	111.15791	-128.88312	111.15791
6600.00000	111.10071	-131.42417	111.10071
6650.00000	111.00801	-133.73953	111.00801
6700.00000	110.94298	-136.28140	110.94298
6750.00000	110.88046	-138.66643	110.88046
6800.00000	110.83572	-140.96584	110.83572
6850.00000	110.79725	-143.46471	110.79725
6900.00000	110.76184	-146.08763	110.76184
6950.00000	110.70151	-148.49468	110.70151
7000.00000	110.70997	-151.11370	110.70997
7050.00000	110.65488	-153.99998	110.65488
7100.00000	110.60843	-156.74502	110.60843
7150.00000	110.56596	-159.48629	110.56596
7200.00000	110.53777	-162.32870	110.53777
7250.00000	110.45547	-165.29418	110.45547
7300.00000	110.45552	-168.23996	110.45552
7350.00000	110.36523	-171.07525	110.36523
7400.00000	110.32682	-174.17377	110.32682
7450.00000	110.24677	-177.33024	110.24677
7500.00000	110.16761	-180.53979	110.16761
7550.00000	110.10563	-183.61491	110.10563
7600.00000	109.98679	-186.87509	109.98679
7650.00000	109.86542	-190.08864	109.86542
7700.00000	109.78118	-193.07218	109.78118
7750.00000	109.59975	-196.19634	109.59975
7800.00000	109.45171	-199.22512	109.45171
7850.00000	109.29766	-202.16552	109.29766
7900.00000	109.12994	-204.84232	109.12994
7950.00000	108.96472	-207.86242	108.96472
8000.00000	108.80443	-210.62031	108.80443
8050.00000	108.63640	-213.78615	108.63640
8100.00000	108.48972	-216.00458	108.48972
8150.00000	108.28373	-218.60083	108.28373
8200.00000	108.12590	-220.93776	108.12590
8250.00000	107.95502	-223.49550	107.95502
8300.00000	107.77567	-225.91765	107.77567
8350.00000	107.58218	-228.15108	107.58218
8400.00000	107.42914	-230.91604	107.42914
8450.00000	107.17596	-233.40988	107.17596
8500.00000	106.95873	-235.89444	106.95873
8550.00000	106.78831	-238.39288	106.78831
8600.00000	106.59049	-241.38542	106.59049
8650.00000	106.36742	-243.92948	106.36742
8700.00000	106.21618	-247.26927	106.21618
8750.00000	105.97764	-248.75978	105.97764
8800.00000	105.79951	-251.62928	105.79951
8850.00000	105.57834	-253.94822	105.57834
8900.00000	105.37776	-255.83794	105.37776
8950.00000	105.16237	-258.08871	105.16237
9000.00000	104.86188	-259.82135	104.86188
9050.00000	104.65929	-261.94260	104.65929
9100.00000	104.42544	-263.76363	104.42544
9150.00000	104.20014	-265.43661	104.20014
9200.00000	104.07772	-267.72331	104.07772
9250.00000	103.87200	-270.05539	103.87200
9300.00000	103.78393	-272.14808	103.78393
9350.00000	103.74321	-274.52716	103.74321
9400.00000	103.60602	-275.83127	103.60602
9450.00000	103.57505	-277.45676	103.57505
9500.00000	103.60569	-277.97099	103.60569
9550.00000	103.71190	-279.40718	103.71190
9600.00000	103.71724	-281.50425	103.71724
9650.00000	103.61229	-283.79386	103.61229
9700.00000	103.49507	-285.24442	103.49507
9750.00000	103.39147	-288.12480	103.39147
9800.00000	103.18887	-290.07381	103.18887
9850.00000	103.04514	-292.09554	103.04514
9900.00000	102.76064	-294.96913	102.76064
9950.00000	102.62115	-296.80686	102.62115
10000.00000	102.54048	-299.50050	102.54048
10050.00000	102.40750	-301.46427	102.40750
10100.00000	102.24893	-303.40252	102.24893
10150.00000	102.01800	-305.58217	102.01800
10200.00000	101.86522	-307.35648	101.86522
10250.00000	101.64883	-309.50053	101.64883
10300.00000	101.58551	-311.59554	101.58551
10350.00000	101.36310	-313.70064	101.36310
10400.00000	101.16104	-316.10835	101.16104
10450.00000	101.09584	-318.72110	101.09584
10500.00000	101.03786	-321.12435	101.03786
10550.00000	100.96646	-323.57169	100.96646
10600.00000	100.89217	-325.68254	100.89217
10650.00000	100.78276	-327.46233	100.78276
10700.00000	100.69696	-330.06792	100.69696
10750.00000	100.61893	-332.23808	100.61893
10800.00000	100.43753	-334.11804	100.43753
10850.00000	100.26290	-337.04867	100.26290
10900.00000	100.11418	-339.15788	100.11418
10950.00000	99.96225	-341.14167	99.96225
11000.00000	99.78816	-343.43024	99.78816
11050.00000	99.46836	-345.57592	99.46836
11100.00000	99.29595	-348.19974	99.29595
11150.00000	98.99835	-350.07875	98.99835
11200.00000	98.82236	-351.88351	98.82236
11250.00000	98.48863	-354.25753	98.48863
11300.00000	98.17966	-356.26443	98.17966
11350.00000	97.89900	-357.85560	97.89900
11400.00000	97.51313	-359.57272	97.51313
11450.00000	97.26966	-361.94516	97.26966
11500.00000	97.12926	-362.70404	97.12926
11550.00000	96.80975	-363.76937	96.80975
11600.00000	96.69061	-365.47830	96.69061
11650.00000	96.46748	-365.42279	96.46748
11700.00000	96.31264	-366.39001	96.31264
11750.00000	96.15958	-367.31101	96.15958
11800.00000	96.02700	-368.72437	96.02700
11850.00000	95.96664	-368.90733	95.96664
11900.00000	95.68585	-370.52405	95.68585
11950.00000	95.60723	-371.11588	95.60723
12000.00000	95.46564	-371.64725	95.46564
12050.00000	95.33846	-372.33730	95.33846
12100.00000	95.23997	-374.27784	95.23997
12150.00000	95.14621	-375.96124	95.14621
12200.00000	95.13998	-377.38787	95.13998
12250.00000	95.13241	-378.60574	95.13241
12300.00000	96.23485	-380.53472	96.23485
12350.00000	95.05475	-381.80351	95.05475
12400.00000	94.95400	-382.48506	94.95400
12450.00000	94.85024	-383.72988	94.85024
12500.00000	94.72846	-386.05970	94.72846
12550.00000	94.57207	-388.11357	94.57207
12600.00000	94.40288	-390.43792	94.40288
12650.00000	94.44692	-392.40170	94.44692
12700.00000	94.22938	-394.42711	94.22938
12750.00000	94.10730	-396.30197	94.10730
12800.00000	93.86868	-397.93051	93.86868
12850.00000	93.44584	-399.28228	93.44584
12900.00000	93.22741	-401.88134	93.22741
12950.00000	93.01614	-403.98033	93.01614
13000.00000	92.82388	-406.67100	92.82388
13050.00000	92.58668	-406.88926	92.58668
13100.00000	92.23965	-408.25446	92.23965
13150.00000	92.03351	-409.87234	92.03351
13200.00000	91.60574	-409.40685	91.60574
13250.00000	91.31820	-409.82348	91.31820
13300.00000	91.00699	-408.89649	91.00699
13350.00000	90.74614	-410.72726	90.74614
13400.00000	90.63490	-411.10716	90.63490
13450.00000	90.20046	-409.53958	90.20046
13500.00000	90.02741	-407.36770	90.02741
13550.00000	89.59107	-408.25830	89.59107
13600.00000	89.52530	-406.96343	89.52530
13650.00000	89.37152	-407.39324	89.37152
13700.00000	89.05792	-407.01885	89.05792
13750.00000	88.94716	-406.55753	88.94716
13800.00000	88.76612	-406.99670	88.76612
13850.00000	88.66178	-406.57085	88.66178
13900.00000	88.35752	-404.99627	88.35752
13950.00000	88.37013	-404.17705	88.37013
14000.00000	88.68735	-401.88139	88.68735
14050.00000	88.77427	-401.49834	88.77427
14100.00000	88.88639	-400.00497	88.88639
14150.00000	89.05835	-399.03045	89.05835
14200.00000	89.21339	-397.34489	89.21339
14250.00000	89.62668	-394.54876	89.62668
14300.00000	89.69356	-394.53857	89.69356
14350.00000	89.98449	-392.60566	89.98449
14400.00000	89.92139	-393.21126	89.92139
14450.00000	90.24097	-391.68378	90.24097
14500.00000	90.48804	-392.98881	90.48804
14550.00000	90.90409	-392.17615	90.90409
14600.00000	91.06069	-393.52076	91.06069
14650.00000	91.58041	-392.38026	91.58041
14700.00000	91.84704	-396.91892	91.84704
14750.00000	92.18801	-396.89995	92.18801
14800.00000	92.43295	-396.98031	92.43295
14850.00000	92.91272	-397.62795	92.91272
14900.00000	93.32811	-398.68763	93.32811
14950.00000	93.65915	-400.61354	93.65915
15000.00000	93.96620	-402.57062	93.96620
15050.00000	94.06279	-402.44441	94.06279
15100.00000	94.39762	-403.50036	94.39762
15150.00000	94.75496	-406.52435	94.75496
15200.00000	94.91275	-407.23013	94.91275
15250.00000	95.01317	-410.60186	95.01317
15300.00000	95.48129	-411.98407	95.48129
15350.00000	95.57828	-414.97727	95.57828
15400.00000	95.63431	-415.74923	95.63431
15450.00000	95.80592	-418.25239	95.80592
15500.00000	96.05604	-420.29219	96.05604
15550.00000	96.25960	-422.64492	96.25960
15600.00000	96.38422	-424.83065	96.38422
15650.00000	96.71138	-424.77897	96.71138
15700.00000	96.71627	-428.07927	96.71627
15750.00000	97.00862	-429.55196	97.00862
15800.00000	97.18775	-430.61525	97.18775
15850.00000	97.36882	-432.71531	97.36882
15900.00000	97.46471	-435.48988	97.46471
15950.00000	97.66891	-437.22566	97.66891
16000.00000	97.80477	-439.35756	97.80477
16050.00000	98.07285	-440.76248	98.07285
16100.00000	98.00380	-443.15483	98.00380
16150.00000	98.13842	-445.30382	98.13842
16200.00000	98.36521	-448.11690	98.36521
16250.00000	98.55532	-449.53735	98.55532
16300.00000	98.84630	-451.87274	98.84630
16350.00000	98.93154	-453.90492	98.93154
16400.00000	99.10731	-455.51830	99.10731
16450.00000	99.22560	-457.55698	99.22560
16500.00000	99.37889	-459.85245	99.37889
16550.00000	99.60785	-462.66257	99.60785
16600.00000	99.79149	-464.84215	99.79149
16650.00000	99.94438	-467.08285	99.94438
16700.00000	100.18618	-469.29846	100.18618
16750.00000	100.23371	-472.26019	100.23371
16800.00000	100.45265	-475.27300	100.45265
16850.00000	100.63815	-478.22273	100.63815
16900.00000	100.82996	-481.02762	100.82996
16950.00000	100.95479	-484.05174	100.95479
17000.00000	100.96190	-487.08849	100.96190
17050.00000	101.12152	-489.08843	101.12152
17100.00000	101.05393	-491.30520	101.05393
17150.00000	101.29817	-495.11645	101.29817
17200.00000	101.37881	-497.81602	101.37881
17250.00000	101.36850	-501.15621	101.36850
17300.00000	101.48701	-503.76684	101.48701
17350.00000	101.43876	-506.46827	101.43876
17400.00000	101.55981	-509.66643	101.55981
17450.00000	101.46770	-512.81068	101.46770
17500.00000	101.52295	-515.76362	101.52295
17550.00000	101.52576	-518.50078	101.52576
17600.00000	101.59735	-521.17638	101.59735
17650.00000	101.59244	-524.57212	101.59244
17700.00000	101.51694	-527.57185	101.51694
17750.00000	101.60674	-529.82962	101.60674
17800.00000	101.45349	-533.21402	101.45349
17850.00000	101.41706	-535.60434	101.41706
17900.00000	101.35708	-538.41745	101.35708
17950.00000	101.35957	-541.47904	101.35957
18000.00000	101.31482	-544.32053	101.31482
18050.00000	101.33647	-546.43797	101.33647
18100.00000	101.19753	-549.37599	101.19753
18150.00000	101.09826	-551.40583	101.09826
18200.00000	100.97692	-554.51608	100.97692
18250.00000	100.95112	-555.87532	100.95112
18300.00000	100.91083	-558.28307	100.91083
18350.00000	100.83073	-560.54462	100.83073
18400.00000	100.69985	-562.82586	100.69985
18450.00000	100.57843	-565.91084	100.57843
18500.00000	100.50347	-567.82674	100.50347
18550.00000	100.43036	-569.42572	100.43036
18600.00000	100.45286	-571.45990	100.45286
18650.00000	100.29306	-573.16824	100.29306
18700.00000	100.20985	-575.27594	100.20985
18750.00000	100.19972	-577.11716	100.19972
18800.00000	100.32217	-578.49745	100.32217
18850.00000	100.13768	-580.35621	100.13768
18900.00000	100.10795	-581.66229	100.10795
18950.00000	100.14083	-583.72418	100.14083
19000.00000	99.96793	-585.18019	99.96793
19050.00000	100.14108	-587.14065	100.14108
19100.00000	100.11032	-588.38133	100.11032
19150.00000	100.25399	-590.13200	100.25399
19200.00000	100.24659	-591.22712	100.24659
19250.00000	100.30839	-594.07957	100.30839
19300.00000	100.29694	-595.48279	100.29694
19350.00000	100.36438	-596.94883	100.36438
19400.00000	100.38542	-598.93972	100.38542
19450.00000	100.53919	-599.96044	100.53919
19500.00000	100.50365	-602.73053	100.50365
19550.00000	100.59740	-604.61757	100.59740
19600.00000	100.73990	-606.94554	100.73990
19650.00000	100.77443	-608.67790	100.77443
19700.00000	100.76011	-610.84477	100.76011
19750.00000	100.83175	-612.33297	100.83175
19800.00000	101.00549	-615.35071	101.00549
19850.00000	101.08962	-617.31620	101.08962
19900.00000	101.14698	-620.24722	101.14698
19950.00000	101.19250	-622.38241	101.19250
20000.00000	101.28217	-624.77395	101.28217
20050.00000	101.37482	-627.18880	101.37482
20100.00000	101.35710	-629.84954	101.35710
20150.00000	101.47993	-631.49044	101.47993
20200.00000	101.48189	-634.82105	101.48189
20250.00000	101.48694	-637.20045	101.48694
20300.00000	101.39169	-639.99232	101.39169
20350.00000	101.50739	-642.67607	101.50739
20400.00000	101.42542	-644.45108	101.42542
20450.00000	101.33882	-647.18295	101.33882
20500.00000	101.37169	-649.89750	101.37169
20550.00000	101.12192	-651.58143	101.12192
20600.00000	101.15121	-653.65879	101.15121
20650.00000	101.07966	-655.80030	101.07966
20700.00000	100.95992	-657.63291	100.95992
20750.00000	100.95628	-659.40711	100.95628
20800.00000	100.84150	-660.71783	100.84150
20850.00000	100.85212	-662.35964	100.85212
20900.00000	100.74146	-663.75131	100.74146
20950.00000	100.70470	-664.37915	100.70470
21000.00000	100.72086	-665.41156	100.72086
21050.00000	100.90686	-666.19404	100.90686
21100.00000	100.95830	-666.88564	100.95830
21150.00000	101.13178	-668.23574	101.13178
21200.00000	101.32390	-669.15254	101.32390
21250.00000	101.50828	-671.83374	101.50828
21300.00000	101.74799	-672.92253	101.74799
21350.00000	101.93636	-674.67206	101.93636
21400.00000	102.10093	-677.37167	102.10093
21450.00000	102.31443	-679.84475	102.31443
21500.00000	102.50795	-682.79754	102.50795
21550.00000	102.54446	-685.14428	102.54446
21600.00000	102.74085	-688.29098	102.74085
21650.00000	102.79407	-691.54026	102.79407
21700.00000	102.84829	-694.16453	102.84829
21750.00000	102.88807	-697.21210	102.88807
21800.00000	102.93395	-700.26572	102.93395
21850.00000	102.87008	-703.01780	102.87008
21900.00000	102.87999	-705.90036	102.87999
21950.00000	102.83996	-708.30068	102.83996
22000.00000	102.85455	-711.04070	102.85455
22050.00000	102.80435	-713.20934	102.80435
22100.00000	102.71475	-715.89002	102.71475
22150.00000	102.67364	-718.41365	102.67364
22200.00000	102.70554	-720.65703	102.70554
22250.00000	102.62130	-722.76415	102.62130
22300.00000	102.46132	-725.28244	102.46132
22350.00000	102.53969	-727.49392	102.53969
22400.00000	102.53631	-730.02886	102.53631
22450.00000	102.40191	-731.94102	102.40191
22500.00000	102.34953	-733.10575	102.34953
22550.00000	102.29926	-735.75136	102.29926
22600.00000	102.25185	-738.55624	102.25185
22650.00000	102.21117	-740.84213	102.21117
22700.00000	102.17026	-742.63551	102.17026
22750.00000	102.07405	-743.12437	102.07405
22800.00000	102.07574	-747.36817	102.07574
22850.00000	102.13463	-750.03772	102.13463
22900.00000	102.06742	-750.90106	102.06742
22950.00000	102.02089	-752.67515	102.02089
23000.00000	101.96517	-754.12296	101.96517
23050.00000	101.89312	-757.10075	101.89312
23100.00000	102.00517	-758.28479	102.00517
23150.00000	101.80607	-759.88074	101.80607
23200.00000	101.89403	-763.02105	101.89403
23250.00000	101.67989	-765.66619	101.67989
23300.00000	101.89882	-768.06738	101.89882
23350.00000	101.56866	-769.92872	101.56866
23400.00000	101.56894	-771.43098	101.56894
23450.00000	101.61902	-774.20512	101.61902
23500.00000	101.46944	-775.49508	101.46944
23550.00000	101.40921	-775.83151	101.40921
23600.00000	101.35639	-779.96978	101.35639
23650.00000	101.35180	-781.48581	101.35180
23700.00000	101.49095	-785.86099	101.49095
23750.00000	101.40565	-786.64067	101.40565
23800.00000	101.17320	-787.42439	101.17320
23850.00000	101.21195	-788.78471	101.21195
23900.00000	101.49366	-791.58426	101.49366
23950.00000	101.17155	-794.40993	101.17155
24000.00000	101.09680	-797.89059	101.09680
24050.00000	101.06495	-797.51815	101.06495
24100.00000	101.32555	-801.43887	101.32555
24150.00000	101.25519	-803.10865	101.25519
24200.00000	101.23675	-806.75859	101.23675
24250.00000	100.76407	-807.32415	100.76407
24300.00000	101.21282	-810.48494	101.21282
24350.00000	100.94121	-812.63377	100.94121
24400.00000	100.89762	-815.34193	100.89762
24450.00000	100.54121	-817.18998	100.54121
24500.00000	100.99349	-817.82218	100.99349
24550.00000	100.69382	-822.32415	100.69382
24600.00000	101.05452	-823.08009	101.05452
24650.00000	100.72983	-467.21919	100.72983
24700.00000	100.63122	-466.30065	100.63122
24750.00000	100.65123	-111.06893	100.65123
24800.00000	100.59123	247.16373	100.59123
24850.00000	100.20035	605.94087	100.20035
24900.00000	100.35378	965.66842	100.35378
24950.00000	100.68766	1318.95754	100.68766
25000.00000	100.38659	955.64465	100.38659
25050.00000	100.41764	955.62480	100.41764
25100.00000	100.03648	954.15044	100.03648
25150.00000	100.40726	952.44112	100.40726
25200.00000	100.05654	950.71125	100.05654
25250.00000	100.33610	948.59130	100.33610
25300.00000	100.27519	948.23193	100.27519
25350.00000	100.42634	943.00681	100.42634
25400.00000	100.29516	939.16465	100.29516
25450.00000	100.39469	936.98734	100.39469
25500.00000	100.20646	936.31104	100.20646
25550.00000	100.25085	933.30978	100.25085
25600.00000	100.40805	930.24941	100.40805
25650.00000	100.30285	929.79386	100.30285
25700.00000	100.33335	926.61689	100.33335
25750.00000	100.21103	923.83064	100.21103
25800.00000	100.18389	920.15705	100.18389
25850.00000	100.18739	918.05402	100.18739
25900.00000	100.12773	914.63092	100.12773
25950.00000	100.00536	915.93110	100.00536
26000.00000	100.10617	910.67563	100.10617
26050.00000	100.11329	908.39536	100.11329
26100.00000	100.02082	906.25844	100.02082
26150.00000	100.02874	903.04542	100.02874
26200.00000	100.15213	901.33565	100.15213
26250.00000	100.00021	899.04092	100.00021
26300.00000	100.04707	895.54063	100.04707
26350.00000	99.62334	894.72835	99.62334
26400.00000	99.72901	892.19175	99.72901
26450.00000	100.00089	888.61776	100.00089
26500.00000	99.78769	886.56596	99.78769
26550.00000	99.73883	881.34891	99.73883
26600.00000	99.57781	878.72265	99.57781
26650.00000	99.65602	878.53505	99.65602
26700.00000	99.67192	875.58974	99.67192
26750.00000	99.43313	873.48307	99.43313
26800.00000	99.37534	868.05874	99.37534
26850.00000	99.54838	867.69285	99.54838
26900.00000	99.48487	865.45423	99.48487
26950.00000	99.52225	861.74011	99.52225
27000.00000	99.03598	860.54716	99.03598
27050.00000	99.24451	856.69743	99.24451
27100.00000	98.85493	855.28931	98.85493
27150.00000	98.78516	851.84234	98.78516
27200.00000	98.85177	849.90563	98.85177
27250.00000	98.29980	848.48503	98.29980
27300.00000	98.17664	844.47091	98.17664
27350.00000	98.20587	845.20750	98.20587
27400.00000	97.65861	841.82229	97.65861
27450.00000	97.62545	840.03876	97.62545
27500.00000	97.48727	838.17682	97.48727
27550.00000	97.41211	834.82971	97.41211
27600.00000	97.52529	832.71528	97.52529
27650.00000	96.70754	832.64528	96.70754
27700.00000	96.80347	827.64725	96.80347
27750.00000	96.72491	825.73219	96.72491
27800.00000	96.62722	823.66179	96.62722
27850.00000	96.67624	824.67494	96.67624
27900.00000	95.99585	824.34958	95.99585
27950.00000	95.38747	820.08061	95.38747
28000.00000	95.39403	821.22419	95.39403
28050.00000	95.82022	819.06571	95.82022
28100.00000	95.04571	818.27406	95.04571
28150.00000	95.03784	816.03392	95.03784
28200.00000	95.06198	813.89192	95.06198
28250.00000	94.59703	812.21241	94.59703
28300.00000	94.17728	813.85612	94.17728
28350.00000	94.23756	812.96126	94.23756
28400.00000	93.95907	813.81494	93.95907
28450.00000	94.58852	810.67313	94.58852
28500.00000	93.86177	811.62707	93.86177
28550.00000	93.99680	813.17689	93.99680
28600.00000	93.54932	812.31610	93.54932
28650.00000	93.87741	808.46796	93.87741
28700.00000	93.76740	811.33982	93.76740
28750.00000	94.31711	811.81371	94.31711
28800.00000	94.04780	809.83487	94.04780
28850.00000	93.27198	808.87800	93.27198
28900.00000	93.31718	807.26206	93.31718
28950.00000	93.27635	809.15757	93.27635
29000.00000	93.49125	807.62988	93.49125
29050.00000	93.11418	810.73793	93.11418
29100.00000	93.23137	810.28332	93.23137
29150.00000	92.98199	809.35811	92.98199
29200.00000	92.83535	807.30748	92.83535
29250.00000	93.30079	808.40599	93.30079
29300.00000	93.04806	807.06122	93.04806
29350.00000	93.37340	806.01911	93.37340
29400.00000	93.28716	806.90977	93.28716
29450.00000	93.09613	806.45097	93.09613
29500.00000	93.71351	806.29732	93.71351
29550.00000	93.19546	802.98397	93.19546
29600.00000	93.45105	804.79710	93.45105
29650.00000	93.53703	803.55071	93.53703
29700.00000	93.34158	805.55569	93.34158
29750.00000	93.36912	806.13077	93.36912
29800.00000	93.37385	804.22998	93.37385
29850.00000	93.49534	803.43206	93.49534
29900.00000	93.79224	806.06950	93.79224
29950.00000	92.92201	805.24689	92.92201
30000.00000	93.58407	807.30206	93.58407
30050.00000	93.66418	805.64074	93.66418
30100.00000	93.63671	807.50831	93.63671
30150.00000	93.88297	805.40910	93.88297
30200.00000	94.06462	803.44221	94.06462
30250.00000	93.92488	805.38382	93.92488
30300.00000	93.76253	806.42684	93.76253
30350.00000	94.08925	807.64818	94.08925
30400.00000	94.24249	806.44454	94.24249
30450.00000	94.01220	806.74147	94.01220
30500.00000	94.29003	806.67823	94.29003
30550.00000	94.52034	809.44554	94.52034
30600.00000	94.72288	809.03797	94.72288
30650.00000	95.08470	809.12289	95.08470
30700.00000	95.30341	808.54505	95.30341
30750.00000	95.22638	810.14492	95.22638
30800.00000	95.65517	810.43889	95.65517
30850.00000	96.00427	811.15989	96.00427
30900.00000	96.04573	812.84091	96.04573
30950.00000	96.63906	811.78887	96.63906
31000.00000	97.13446	810.68640	97.13446
31050.00000	97.54351	810.86932	97.54351
31100.00000	98.19653	811.57882	98.19653
31150.00000	98.29358	810.50222	98.29358
31200.00000	99.23323	808.97740	99.23323
31250.00000	99.58233	807.59668	99.58233
31300.00000	100.16214	806.05381	100.16214
31350.00000	100.77266	804.05891	100.77266
31400.00000	101.14953	801.10801	101.14953
31450.00000	101.69834	798.71898	101.69834
31500.00000	102.14250	795.19077	102.14250
31550.00000	102.64500	792.68161	102.64500
31600.00000	103.19618	788.69942	103.19618
31650.00000	103.62597	785.15953	103.62597
31700.00000	104.00470	782.10869	104.00470
31750.00000	104.41835	779.36553	104.41835
31800.00000	104.73184	774.67119	104.73184
31850.00000	105.09568	769.68413	105.09568
31900.00000	105.30003	766.94786	105.30003
31950.00000	105.70894	762.44246	105.70894
32000.00000	105.94908	758.31743	105.94908
32050.00000	106.25300	754.45079	106.25300
32100.00000	106.42426	749.65010	106.42426
32150.00000	106.68819	746.03548	106.68819
32200.00000	106.97037	741.65937	106.97037
32250.00000	107.10709	736.72875	107.10709
32300.00000	107.27111	732.93892	107.27111
32350.00000	107.37879	730.06808	107.37879
32400.00000	107.63515	725.71342	107.63515
32450.00000	107.69145	721.14978	107.69145
32500.00000	107.79080	718.23382	107.79080
32550.00000	108.04249	713.19769	108.04249
32600.00000	108.06591	709.87980	108.06591
32650.00000	108.27611	705.70887	108.27611
32700.00000	108.17051	701.44451	108.17051
32750.00000	108.31638	697.46256	108.31638
32800.00000	108.47460	694.29115	108.47460
32850.00000	108.68965	690.44295	108.68965
32900.00000	108.53555	685.44808	108.53555
32950.00000	108.54387	681.09673	108.54387
33000.00000	108.58620	679.85457	108.58620
33050.00000	108.54217	674.94965	108.54217
33100.00000	108.71736	671.68803	108.71736
33150.00000	108.76088	668.31749	108.76088
33200.00000	108.84275	665.90052	108.84275
33250.00000	108.79241	662.07033	108.79241
33300.00000	108.83777	658.46905	108.83777
33350.00000	108.73554	654.88531	108.73554
33400.00000	108.74083	651.92217	108.74083
33450.00000	108.79871	647.96787	108.79871
33500.00000	108.91815	646.52361	108.91815
33550.00000	108.61696	641.58987	108.61696
33600.00000	108.87326	638.57573	108.87326
33650.00000	108.75023	635.65500	108.75023
33700.00000	108.71233	632.87101	108.71233
33750.00000	108.58494	630.13504	108.58494
33800.00000	108.64175	626.87853	108.64175
33850.00000	108.38295	624.43520	108.38295
33900.00000	108.59262	621.52890	108.59262
33950.00000	108.39719	619.33805	108.39719
34000.00000	108.31992	615.82038	108.31992
34050.00000	108.34294	614.17729	108.34294
34100.00000	108.15389	612.25311	108.15389
34150.00000	108.20127	609.43961	108.20127
34200.00000	108.23584	608.92298	108.23584
34250.00000	108.23315	605.28625	108.23315
34300.00000	108.03049	602.96147	108.03049
34350.00000	108.23830	601.56320	108.23830
34400.00000	107.86807	601.03343	107.86807
34450.00000	108.03207	596.07234	108.03207
34500.00000	108.03360	594.61774	108.03360
34550.00000	108.05113	592.95670	108.05113
34600.00000	107.76293	590.51326	107.76293
34650.00000	108.01671	591.08184	108.01671
34700.00000	107.59564	591.03014	107.59564
34750.00000	107.87070	585.35502	107.87070
34800.00000	108.06409	586.89930	108.06409
34850.00000	108.22023	586.51776	108.22023
34900.00000	108.38064	583.71271	108.38064
34950.00000	108.35704	583.17906	108.35704
35000.00000	108.34196	580.90954	108.34196
35050.00000	108.56380	580.68177	108.56380
35100.00000	108.81997	578.64286	108.81997
35150.00000	108.66467	577.59723	108.66467
35200.00000	108.81543	574.33984	108.81543
35250.00000	109.01451	573.21740	109.01451
35300.00000	109.22898	571.08448	109.22898
35350.00000	109.47226	569.13543	109.47226
35400.00000	109.61873	567.03953	109.61873
35450.00000	109.74149	566.17677	109.74149
35500.00000	109.64309	563.50359	109.64309
35550.00000	110.07852	562.60804	110.07852
35600.00000	110.06238	559.66775	110.06238
35650.00000	110.36629	558.75650	110.36629
35700.00000	110.49511	556.33406	110.49511
35750.00000	110.61351	555.33021	110.61351
35800.00000	110.77696	553.91182	110.77696
35850.00000	111.00942	550.73664	111.00942
35900.00000	111.23731	548.75607	111.23731
35950.00000	111.53333	546.60233	111.53333
36000.00000	111.77595	544.59944	111.77595
36050.00000	111.87352	541.56949	111.87352
36100.00000	112.12183	539.24143	112.12183
36150.00000	112.03920	537.15935	112.03920
36200.00000	112.31427	534.41883	112.31427
36250.00000	112.31869	532.17815	112.31869
36300.00000	112.38641	529.85536	112.38641
36350.00000	112.71062	527.93735	112.71062
36400.00000	112.82295	525.59274	112.82295
36450.00000	112.84142	522.47113	112.84142
36500.00000	113.21314	520.95416	113.21314
36550.00000	113.07286	516.70238	113.07286
36600.00000	113.29091	514.22456	113.29091
36650.00000	113.54567	512.35426	113.54567
36700.00000	113.70440	508.61074	113.70440
36750.00000	113.82448	505.16492	113.82448
36800.00000	113.81083	503.10666	113.81083
36850.00000	113.76551	499.41361	113.76551
36900.00000	114.06224	496.75686	114.06224
36950.00000	113.93692	493.32525	113.93692
37000.00000	113.76549	491.20534	113.76549
37050.00000	113.87131	488.63916	113.87131
37100.00000	114.04827	484.45587	114.04827
37150.00000	114.16377	481.35453	114.16377
37200.00000	114.37924	479.16584	114.37924
37250.00000	113.97218	475.85280	113.97218
37300.00000	114.09621	472.95500	114.09621
37350.00000	114.38966	469.81834	114.38966
37400.00000	114.19958	467.53997	114.19958
37450.00000	114.11789	465.00363	114.11789
37500.00000	114.42671	460.70168	114.42671
37550.00000	114.21167	459.41842	114.21167
37600.00000	114.31271	456.25835	114.31271
37650.00000	114.30262	453.58742	114.30262
37700.00000	114.48826	449.74462	114.48826
37750.00000	114.50318	447.98430	114.50318
37800.00000	114.43410	444.09016	114.43410
37850.00000	114.49757	440.05077	114.49757
37900.00000	114.56063	438.05235	114.56063
37950.00000	114.69148	435.75908	114.69148
38000.00000	114.67461	432.93911	114.67461
38050.00000	114.81176	429.14451	114.81176
38100.00000	115.04161	425.89040	115.04161
38150.00000	114.96807	422.24100	114.96807
38200.00000	115.20382	418.21010	115.20382
38250.00000	115.29913	415.51405	115.29913
38300.00000	115.46759	411.10348	115.46759
38350.00000	115.53507	408.39850	115.53507
38400.00000	115.63720	404.72228	115.63720
38450.00000	115.82981	400.21232	115.82981
38500.00000	115.99407	395.93366	115.99407
38550.00000	116.16318	392.81159	116.16318
38600.00000	116.35138	388.54739	116.35138
38650.00000	116.48714	383.79981	116.48714
38700.00000	116.63188	379.30459	116.63188
38750.00000	116.75196	375.23580	116.75196
38800.00000	116.88582	370.71415	116.88582
38850.00000	116.97224	365.90949	116.97224
38900.00000	117.12014	361.34994	117.12014
38950.00000	117.18342	355.93174	117.18342
39000.00000	117.24546	350.93939	117.24546
39050.00000	117.32958	345.57610	117.32958
39100.00000	117.25205	340.54349	117.25205
39150.00000	117.23084	335.39352	117.23084
39200.00000	117.18423	330.27038	117.18423
39250.00000	117.15350	324.85226	117.15350
39300.00000	117.02588	319.52767	117.02588
39350.00000	116.83759	314.94098	116.83759
39400.00000	116.69146	309.40416	116.69146
39450.00000	116.43891	305.31238	116.43891
39500.00000	116.28911	300.42679	116.28911
39550.00000	115.93422	295.31795	115.93422
39600.00000	115.56829	291.11990	115.56829
39650.00000	115.38005	287.32314	115.38005
39700.00000	115.02478	283.28400	115.02478
39750.00000	114.78209	279.02517	114.78209
39800.00000	114.51047	275.34323	114.51047
39850.00000	114.08907	271.66876	114.08907
39900.00000	113.76160	268.90648	113.76160
39950.00000	113.41312	265.77910	113.41312
40000.00000	112.92971	263.98229	112.92971
40050.00000	112.75566	259.73334	112.75566
40100.00000	112.44091	257.12950	112.44091
40150.00000	112.06609	254.47521	112.06609
40200.00000	111.69700	251.59189	111.69700
40250.00000	111.37170	249.72697	111.37170
40300.00000	111.13421	247.74043	111.13421
40350.00000	110.70854	246.09076	110.70854
40400.00000	110.40045	244.28222	110.40045
40450.00000	110.02134	242.22289	110.02134
40500.00000	109.87601	242.10182	109.87601
40550.00000	109.56127	239.72396	109.56127
40600.00000	109.28736	238.99871	109.28736
40650.00000	109.05949	237.67835	109.05949
40700.00000	108.63108	237.23143	108.63108
40750.00000	108.53032	235.80514	108.53032
40800.00000	108.41271	234.28812	108.41271
40850.00000	108.04512	234.21162	108.04512
40900.00000	107.96025	232.66056	107.96025
40950.00000	107.52242	233.15358	107.52242
41000.00000	107.28421	232.44306	107.28421
41050.00000	107.26438	231.91429	107.26438
41100.00000	107.18460	230.75324	107.18460
41150.00000	106.99353	231.94053	106.99353
41200.00000	107.00064	231.45715	107.00064
41250.00000	106.77826	228.99829	106.77826
41300.00000	106.49115	230.15153	106.49115
41350.00000	106.56904	230.17643	106.56904
41400.00000	106.40270	226.08254	106.40270
41450.00000	106.35721	227.19538	106.35721
41500.00000	106.13790	226.97899	106.13790
41550.00000	106.00325	230.80378	106.00325
41600.00000	105.65089	227.81364	105.65089
41650.00000	105.81179	224.89462	105.81179
41700.00000	105.95824	226.53781	105.95824
41750.00000	105.51068	229.23641	105.51068
41800.00000	104.67247	223.90133	104.67247
41850.00000	105.62368	227.82636	105.62368
41900.00000	104.04615	224.11243	104.04615
41950.00000	105.54110	227.95194	105.54110
42000.00000	103.93965	221.38009	103.93965
42050.00000	103.12050	220.61886	103.12050
42100.00000	103.24968	222.06093	103.24968
42150.00000	102.25695	213.02575	102.25695
42200.00000	102.24135	221.71771	102.24135
42250.00000	102.14275	221.68029	102.14275
42300.00000	100.46632	214.26668	100.46632
42350.00000	101.56024	216.59084	101.56024
42400.00000	100.90565	215.19095	100.90565
42450.00000	101.33693	205.86908	101.33693
42500.00000	99.97204	207.97441	99.97204
42550.00000	99.74706	215.69034	99.74706
42600.00000	99.91443	211.96122	99.91443
42650.00000	98.90248	205.90924	98.90248
42700.00000	98.96684	202.97205	98.96684
42750.00000	99.68026	201.33638	99.68026
42800.00000	98.20296	192.30545	98.20296
42850.00000	98.85232	189.34496	98.85232
42900.00000	99.57428	196.28550	99.57428
42950.00000	98.68307	187.66579	98.68307
43000.00000	99.63646	170.22803	99.63646
43050.00000	99.03164	173.90121	99.03164
43100.00000	99.72274	177.54989	99.72274
43150.00000	100.05117	168.01523	100.05117
43200.00000	99.43305	172.76856	99.43305
43250.00000	99.86414	161.65950	99.86414
43300.00000	99.98448	157.45966	99.98448
43350.00000	101.01379	159.93240	101.01379
43400.00000	100.58854	151.71119	100.58854
43450.00000	101.38309	152.74753	101.38309
43500.00000	100.65513	145.24992	100.65513
43550.00000	101.80823	141.82120	101.80823
43600.00000	101.47081	137.35141	101.47081
43650.00000	101.99254	130.83233	101.99254
43700.00000	102.27942	131.72473	102.27942
43750.00000	102.45253	131.26932	102.45253
43800.00000	103.40117	120.29074	103.40117
43850.00000	103.65004	113.75438	103.65004
43900.00000	103.97419	113.92390	103.97419
43950.00000	104.37052	108.83989	104.37052
44000.00000	103.95927	103.85083	103.95927
44050.00000	104.27379	100.69901	104.27379
44100.00000	104.97773	90.88340	104.97773
44150.00000	104.88442	90.73330	104.88442
44200.00000	105.18839	90.91251	105.18839
44250.00000	105.60423	84.41539	105.60423
44300.00000	105.84484	77.94187	105.84484
44350.00000	104.94803	74.10298	104.94803
44400.00000	105.90871	68.35343	105.90871
44450.00000	106.20357	69.06842	106.20357
44500.00000	105.75432	65.37532	105.75432
44550.00000	107.00794	54.77286	107.00794
44600.00000	106.12259	55.63524	106.12259
44650.00000	105.94197	47.07638	105.94197
44700.00000	106.08172	42.69941	106.08172
44750.00000	105.76771	44.55488	105.76771
44800.00000	106.54087	36.42173	106.54087
44850.00000	106.21062	30.78437	106.21062
44900.00000	105.91789	28.41420	105.91789
44950.00000	106.03544	25.99464	106.03544
45000.00000	106.37348	15.58606	106.37348
45050.00000	104.77364	22.96956	104.77364
45100.00000	105.12782	17.23064	105.12782
45150.00000	105.43049	 2.77325	105.43049
45200.00000	104.70908	 6.85847	104.70908
45250.00000	105.15944	 2.06117	105.15944
45300.00000	104.69484	 1.50286	104.69484
45350.00000	104.22602	-8.13960	104.22602
45400.00000	104.37892	-6.95737	104.37892
45450.00000	103.97144	-15.45485	103.97144
45500.00000	102.82134	-18.42296	102.82134
45550.00000	102.84710	-16.43782	102.84710
45600.00000	103.68026	-20.81166	103.68026
45650.00000	102.38495	-28.73561	102.38495
45700.00000	102.43802	-32.40232	102.43802
45750.00000	102.86082	-27.13114	102.86082
45800.00000	101.91425	-36.15508	101.91425
45850.00000	101.71327	-35.39255	101.71327
45900.00000	101.19090	-35.71336	101.19090
45950.00000	101.33029	-34.34839	101.33029
46000.00000	99.78014	-53.99798	99.78014
46050.00000	100.06931	-50.55879	100.06931
46100.00000	98.54407	-50.25918	98.54407
46150.00000	98.79333	-47.74372	98.79333
46200.00000	97.04751	-56.53105	97.04751
46250.00000	98.42732	-54.99944	98.42732
46300.00000	97.11653	-58.84633	97.11653
46350.00000	98.46858	-61.72126	98.46858
46400.00000	96.61550	-66.48698	96.61550
46450.00000	94.81108	-63.68607	94.81108
46500.00000	95.40472	-59.84330	95.40472
46550.00000	95.18192	-56.03559	95.18192
46600.00000	96.15154	-52.68205	96.15154
46650.00000	94.71568	-51.07925	94.71568
46700.00000	93.25948	-51.03184	93.25948
46750.00000	93.81266	-43.07696	93.81266
46800.00000	92.34277	-52.21447	92.34277
46850.00000	93.39351	-393.08599	93.39351
46900.00000	93.50517	-407.05418	93.50517
46950.00000	94.47306	-405.23253	94.47306
47000.00000	93.58652	-399.85429	93.58652
47050.00000	96.01113	-408.28037	96.01113
47100.00000	94.10998	-410.97737	94.10998
47150.00000	94.77818	-411.81159	94.77818
47200.00000	93.59587	-413.92290	93.59587
47250.00000	95.53687	-411.07709	95.53687
47300.00000	94.87031	-421.48637	94.87031
47350.00000	94.50297	-768.77251	94.50297
47400.00000	94.23859	-773.31995	94.23859
47450.00000	95.66077	-769.97540	95.66077
47500.00000	93.54732	-782.44073	93.54732
47550.00000	93.44355	-1131.99728	93.44355
47600.00000	93.49770	-1134.52949	93.49770
47650.00000	95.70157	-1141.81737	95.70157
47700.00000	94.54399	-1138.47345	94.54399
47750.00000	93.24550	-1137.08836	93.24550
47800.00000	94.09005	-1155.47388	94.09005
47850.00000	93.78942	-1504.28889	93.78942
47900.00000	94.01136	-1854.94715	94.01136
47950.00000	93.16463	-1854.20913	93.16463
48000.00000	93.68106	-1852.23513	93.68106
48050.00000	94.65776	-1865.03169	94.65776
48100.00000	92.63192	-1865.58098	92.63192
48150.00000	93.63277	-2217.67834	93.63277
48200.00000	94.19152	-2215.20309	94.19152
48250.00000	93.49578	-2226.30818	93.49578
48300.00000	93.47384	-2225.55993	93.47384
48350.00000	94.36054	-2230.50028	94.36054
48400.00000	95.47299	-2577.06402	95.47299
48450.00000	94.53583	-2581.71135	94.53583
48500.00000	94.90330	-2582.51705	94.90330
48550.00000	93.68951	-2585.20370	93.68951
48600.00000	95.92416	-2941.91315	95.92416
48650.00000	95.52820	-2942.19629	95.52820
48700.00000	95.65825	-2950.84052	95.65825
48750.00000	95.01011	-3302.36399	95.01011
48800.00000	95.64657	-3312.56557	95.64657
48850.00000	95.32078	-3315.80510	95.32078
48900.00000	93.95876	-3667.36510	93.95876
48950.00000	95.96263	-3683.22744	95.96263
49000.00000	96.47835	-3676.30724	96.47835
49050.00000	96.06722	-3679.15277	96.06722
49100.00000	95.71435	-4042.12396	95.71435
49150.00000	97.63107	-4396.60656	97.63107
49200.00000	96.14206	-4412.36523	96.14206
49250.00000	95.92255	-4756.99948	95.92255
49300.00000	96.20631	-4413.36303	96.20631
49350.00000	94.23012	-4402.04521	94.23012
49400.00000	96.29685	-4056.70240	96.29685
49450.00000	93.80218	-3692.91707	93.80218
49500.00000	95.10823	-3348.28904	95.10823
49550.00000	95.84210	-2980.90555	95.84210
49600.00000	95.48780	-2974.38372	95.48780
49650.00000	95.30762	-2968.35852	95.30762
49700.00000	96.06875	-2637.06332	96.06875
49750.00000	96.86114	-2624.72603	96.86114
49800.00000	95.68635	-2626.47077	95.68635
49850.00000	95.70141	-2619.45588	95.70141
49900.00000	95.27456	-2267.32368	95.27456
49950.00000	98.79922	-1927.86013	98.79922
