---ACOUSTIC CALIBRATION---
Filename: C:\Data\AZH DATA\AZH62\RightPrimary.calib
Date: 8/27/2019 3:45:01 PM
Format: 4
Probe Tube Correction File: C:\Data\Probe Tube Calibrations\50_ProbeTube.calib
Experiment VIs: 850
EPL_CFTS.exe V12.0.1 (2012)
DAQmx V9.6

Attenuation (dB): 40.000000
Min Freq (Hz): 50.000000
Max Freq (Hz): 49950.000000
Freq Step (Hz): 50.000000
Sample Rate (Hz): 100000.000000
[Smoothing]
Method=None
MA.Iterations=0
MA.Length=0
Loess.Length=0
Loess.Type=Linear
Loess.Robust=FALSE


Freq(Hz)	Mag(dB)	Phase(deg)	Unsmoothed(dB)

50.00000	90.33410	639.26118	90.33410
100.00000	78.24914	795.25240	78.24914
150.00000	73.71560	843.14090	73.71560
200.00000	73.45916	862.34206	73.45916
250.00000	88.89284	790.59525	88.89284
300.00000	76.19599	816.87435	76.19599
350.00000	82.73836	770.45536	82.73836
400.00000	80.72759	756.31070	80.72759
450.00000	81.74498	729.74801	81.74498
500.00000	83.28801	732.64204	83.28801
550.00000	86.33477	722.94517	86.33477
600.00000	89.95701	734.29197	89.95701
650.00000	92.96575	712.14082	92.96575
700.00000	94.71880	697.40199	94.71880
750.00000	96.69545	682.94547	96.69545
800.00000	97.47261	660.09293	97.47261
850.00000	97.06019	641.31937	97.06019
900.00000	96.08104	624.47653	96.08104
950.00000	94.36430	621.89762	94.36430
1000.00000	92.83985	623.10329	92.83985
1050.00000	90.91464	636.82114	90.91464
1100.00000	92.72312	657.94558	92.72312
1150.00000	95.75224	662.14606	95.75224
1200.00000	98.44476	659.72379	98.44476
1250.00000	100.26706	651.39072	100.26706
1300.00000	101.70363	646.70939	101.70363
1350.00000	103.05535	635.43410	103.05535
1400.00000	103.62118	628.07689	103.62118
1450.00000	104.63870	622.67271	104.63870
1500.00000	105.68081	616.18459	105.68081
1550.00000	106.66526	608.34378	106.66526
1600.00000	108.19687	598.43718	108.19687
1650.00000	109.19597	581.59320	109.19597
1700.00000	107.92450	570.83372	107.92450
1750.00000	107.60579	565.33209	107.60579
1800.00000	107.39988	560.75280	107.39988
1850.00000	107.35362	559.53249	107.35362
1900.00000	108.36624	556.56136	108.36624
1950.00000	109.20437	544.38955	109.20437
2000.00000	108.31796	532.83327	108.31796
2050.00000	107.09955	536.48466	107.09955
2100.00000	108.90669	536.78844	108.90669
2150.00000	109.60282	525.86670	109.60282
2200.00000	109.54529	516.39652	109.54529
2250.00000	109.02024	508.91620	109.02024
2300.00000	109.12855	503.53377	109.12855
2350.00000	108.93757	497.03597	108.93757
2400.00000	108.71749	491.32160	108.71749
2450.00000	108.46965	484.87711	108.46965
2500.00000	108.08598	479.39183	108.08598
2550.00000	107.67103	473.99732	107.67103
2600.00000	107.19660	469.33090	107.19660
2650.00000	106.67124	465.50703	106.67124
2700.00000	106.22322	461.34219	106.22322
2750.00000	105.64157	457.73394	105.64157
2800.00000	105.01896	455.16180	105.01896
2850.00000	104.43465	452.78531	104.43465
2900.00000	103.76682	450.49476	103.76682
2950.00000	103.14934	449.15160	103.14934
3000.00000	102.52226	446.87124	102.52226
3050.00000	101.65294	445.90977	101.65294
3100.00000	100.67079	445.34755	100.67079
3150.00000	99.06788	444.54034	99.06788
3200.00000	97.33992	453.35190	97.33992
3250.00000	96.18700	465.77398	96.18700
3300.00000	95.25013	481.85651	95.25013
3350.00000	96.00058	504.81397	96.00058
3400.00000	98.84266	522.12258	98.84266
3450.00000	101.85460	528.24661	101.85460
3500.00000	104.56562	527.43549	104.56562
3550.00000	106.66217	522.75897	106.66217
3600.00000	108.47417	518.27475	108.47417
3650.00000	109.88968	511.90749	109.88968
3700.00000	111.14115	506.72364	111.14115
3750.00000	112.40509	501.24722	112.40509
3800.00000	113.59223	494.86144	113.59223
3850.00000	114.60523	488.20599	114.60523
3900.00000	115.57673	481.63835	115.57673
3950.00000	116.53707	474.72668	116.53707
4000.00000	117.41801	467.39000	117.41801
4050.00000	118.23735	460.13117	118.23735
4100.00000	119.10416	452.62712	119.10416
4150.00000	120.15867	444.09888	120.15867
4200.00000	120.91824	433.96723	120.91824
4250.00000	121.60899	422.61179	121.60899
4300.00000	122.04071	410.37503	122.04071
4350.00000	122.13500	397.90154	122.13500
4400.00000	121.99461	386.31833	121.99461
4450.00000	121.67287	375.91194	121.67287
4500.00000	121.28088	366.45040	121.28088
4550.00000	120.85521	357.66395	120.85521
4600.00000	120.40738	349.59271	120.40738
4650.00000	120.03362	341.88991	120.03362
4700.00000	119.62107	333.63222	119.62107
4750.00000	119.09940	324.96817	119.09940
4800.00000	118.36527	316.01176	118.36527
4850.00000	117.32036	307.74262	117.32036
4900.00000	116.01672	301.51372	116.01672
4950.00000	114.62458	297.87108	114.62458
5000.00000	113.27298	296.89532	113.27298
5050.00000	112.22608	297.16205	112.22608
5100.00000	111.01012	300.61393	111.01012
5150.00000	110.91164	306.43770	110.91164
5200.00000	110.24765	310.31545	110.24765
5250.00000	111.53444	322.86985	111.53444
5300.00000	113.94367	315.11269	113.94367
5350.00000	114.15539	301.84011	114.15539
5400.00000	113.59201	294.10607	113.59201
5450.00000	113.03959	289.72267	113.03959
5500.00000	112.60525	286.41495	112.60525
5550.00000	112.27492	283.85239	112.27492
5600.00000	112.00738	281.23905	112.00738
5650.00000	111.79073	279.05008	111.79073
5700.00000	111.59067	276.63401	111.59067
5750.00000	111.42680	274.22745	111.42680
5800.00000	111.27022	271.88132	111.27022
5850.00000	111.12702	269.47247	111.12702
5900.00000	111.00034	267.27217	111.00034
5950.00000	110.88054	264.84888	110.88054
6000.00000	110.76749	262.64297	110.76749
6050.00000	110.64550	260.42289	110.64550
6100.00000	110.58647	258.20160	110.58647
6150.00000	110.52892	255.95033	110.52892
6200.00000	110.47417	253.50565	110.47417
6250.00000	110.41856	250.71256	110.41856
6300.00000	110.36457	248.19531	110.36457
6350.00000	110.27786	245.36565	110.27786
6400.00000	110.17244	242.72635	110.17244
6450.00000	110.10092	240.08427	110.10092
6500.00000	110.02117	237.56843	110.02117
6550.00000	109.90982	234.92392	109.90982
6600.00000	109.82370	232.40469	109.82370
6650.00000	109.72978	230.00244	109.72978
6700.00000	109.65498	227.44895	109.65498
6750.00000	109.59339	224.97858	109.59339
6800.00000	109.50764	222.62922	109.50764
6850.00000	109.45502	220.43578	109.45502
6900.00000	109.42127	218.06946	109.42127
6950.00000	109.36605	215.78738	109.36605
7000.00000	109.35202	213.32573	109.35202
7050.00000	109.32643	210.65605	109.32643
7100.00000	109.32614	207.98084	109.32614
7150.00000	109.30304	205.55922	109.30304
7200.00000	109.27364	202.76969	109.27364
7250.00000	109.22044	199.88578	109.22044
7300.00000	109.20652	197.05019	109.20652
7350.00000	109.15727	194.38324	109.15727
7400.00000	109.10753	191.42923	109.10753
7450.00000	109.07036	188.46571	109.07036
7500.00000	109.03089	185.13342	109.03089
7550.00000	108.94080	182.56787	108.94080
7600.00000	108.88544	179.82445	108.88544
7650.00000	108.79215	176.93020	108.79215
7700.00000	108.74353	174.17881	108.74353
7750.00000	108.63939	171.55335	108.63939
7800.00000	108.58060	168.87250	108.58060
7850.00000	108.51382	166.14739	108.51382
7900.00000	108.48315	163.66946	108.48315
7950.00000	108.43205	160.97341	108.43205
8000.00000	108.39040	158.23436	108.39040
8050.00000	108.37061	155.05480	108.37061
8100.00000	108.35418	152.71072	108.35418
8150.00000	108.27932	150.11520	108.27932
8200.00000	108.29336	147.62389	108.29336
8250.00000	108.24897	144.52487	108.24897
8300.00000	108.24946	141.47972	108.24946
8350.00000	108.22332	138.58042	108.22332
8400.00000	108.17859	135.25253	108.17859
8450.00000	108.14300	132.09156	108.14300
8500.00000	108.11795	128.30733	108.11795
8550.00000	108.10122	124.72690	108.10122
8600.00000	108.06556	120.62107	108.06556
8650.00000	107.94817	116.45491	107.94817
8700.00000	107.85849	111.68853	107.85849
8750.00000	107.66574	108.33123	107.66574
8800.00000	107.51529	103.85706	107.51529
8850.00000	107.25406	99.70964	107.25406
8900.00000	106.98371	96.00220	106.98371
8950.00000	106.67092	92.10484	106.67092
9000.00000	106.31288	88.57989	106.31288
9050.00000	105.98705	84.71219	105.98705
9100.00000	105.61733	81.40243	105.61733
9150.00000	105.26089	78.08044	105.26089
9200.00000	104.94276	74.90992	104.94276
9250.00000	104.59950	71.89634	104.59950
9300.00000	104.30880	69.40218	104.30880
9350.00000	104.10172	66.76731	104.10172
9400.00000	103.73904	64.81795	103.73904
9450.00000	103.45445	63.14486	103.45445
9500.00000	103.16940	62.46634	103.16940
9550.00000	103.03365	61.74025	103.03365
9600.00000	102.91109	59.58818	102.91109
9650.00000	102.65483	57.48502	102.65483
9700.00000	102.38655	55.96184	102.38655
9750.00000	102.18662	53.18683	102.18662
9800.00000	101.91413	51.69338	101.91413
9850.00000	101.72778	50.07377	101.72778
9900.00000	101.43822	47.99459	101.43822
9950.00000	101.29649	46.47782	101.29649
10000.00000	101.11703	44.31255	101.11703
10050.00000	100.97162	42.67073	100.97162
10100.00000	100.76642	41.22816	100.76642
10150.00000	100.49147	39.00354	100.49147
10200.00000	100.28554	37.27327	100.28554
10250.00000	100.01978	35.17430	100.01978
10300.00000	99.91365	33.03069	99.91365
10350.00000	99.70948	30.96411	99.70948
10400.00000	99.48075	28.47569	99.48075
10450.00000	99.42682	25.95307	99.42682
10500.00000	99.37739	23.82194	99.37739
10550.00000	99.28210	21.56657	99.28210
10600.00000	99.17769	19.72502	99.17769
10650.00000	99.02765	18.35927	99.02765
10700.00000	98.91996	15.71988	98.91996
10750.00000	98.82373	13.67155	98.82373
10800.00000	98.60478	11.94310	98.60478
10850.00000	98.43699	 8.85700	98.43699
10900.00000	98.27345	 6.66299	98.27345
10950.00000	98.12112	 4.65503	98.12112
11000.00000	97.97055	 2.30035	97.97055
11050.00000	97.69413	 0.00675	97.69413
11100.00000	97.50183	-2.66259	97.50183
11150.00000	97.20055	-4.49274	97.20055
11200.00000	97.05816	-6.36552	97.05816
11250.00000	96.75456	-8.73591	96.75456
11300.00000	96.43870	-11.08328	96.43870
11350.00000	96.16478	-12.83332	96.16478
11400.00000	95.82376	-14.90787	95.82376
11450.00000	95.58015	-17.51733	95.58015
11500.00000	95.44157	-18.83088	95.44157
11550.00000	95.12546	-20.52254	95.12546
11600.00000	94.98938	-22.74711	94.98938
11650.00000	94.73453	-23.25180	94.73453
11700.00000	94.56620	-24.70474	94.56620
11750.00000	94.36844	-26.32917	94.36844
11800.00000	94.18516	-28.25104	94.18516
11850.00000	94.01064	-28.95917	94.01064
11900.00000	93.65568	-31.05195	93.65568
11950.00000	93.44170	-32.52390	93.44170
12000.00000	93.24764	-33.37888	93.24764
12050.00000	92.94809	-34.67429	92.94809
12100.00000	92.83960	-37.00547	92.83960
12150.00000	92.62451	-38.60315	92.62451
12200.00000	92.49241	-39.96546	92.49241
12250.00000	92.27310	-41.41887	92.27310
12300.00000	93.19900	-43.33567	93.19900
12350.00000	91.84419	-44.66472	91.84419
12400.00000	91.64979	-45.16269	91.64979
12450.00000	91.43272	-46.56381	91.43272
12500.00000	91.25405	-48.51715	91.25405
12550.00000	91.03927	-50.06070	91.03927
12600.00000	90.77551	-51.94510	90.77551
12650.00000	90.71080	-53.50830	90.71080
12700.00000	90.37157	-54.44153	90.37157
12750.00000	90.12996	-56.38116	90.12996
12800.00000	89.91289	-57.34326	89.91289
12850.00000	89.34179	-58.56471	89.34179
12900.00000	89.05120	-60.49071	89.05120
12950.00000	88.83503	-61.87622	88.83503
13000.00000	88.66246	-64.15160	88.66246
13050.00000	88.43745	-63.87305	88.43745
13100.00000	88.08137	-65.36476	88.08137
13150.00000	87.84016	-66.68038	87.84016
13200.00000	87.59481	-66.18917	87.59481
13250.00000	87.22955	-67.24542	87.22955
13300.00000	86.80256	-66.72172	86.80256
13350.00000	86.49178	-67.47231	86.49178
13400.00000	86.39289	-68.65495	86.39289
13450.00000	86.01590	-67.40556	86.01590
13500.00000	85.69854	-66.10459	85.69854
13550.00000	85.26074	-66.16635	85.26074
13600.00000	85.03200	-65.16295	85.03200
13650.00000	84.81893	-65.08969	84.81893
13700.00000	84.60478	-66.17742	84.60478
13750.00000	84.17594	-64.71277	84.17594
13800.00000	83.93523	-66.12080	83.93523
13850.00000	83.91746	-66.02477	83.91746
13900.00000	83.68600	-64.66729	83.68600
13950.00000	83.45953	-62.95500	83.45953
14000.00000	83.43118	-61.56963	83.43118
14050.00000	83.35065	-61.74992	83.35065
14100.00000	83.19528	-61.18401	83.19528
14150.00000	83.32994	-60.59903	83.32994
14200.00000	83.29033	-58.20292	83.29033
14250.00000	83.73708	-56.31673	83.73708
14300.00000	83.46978	-54.45563	83.46978
14350.00000	83.38613	-52.08140	83.38613
14400.00000	82.98771	-52.22194	82.98771
14450.00000	83.00993	-50.81327	83.00993
14500.00000	82.97181	-50.80077	82.97181
14550.00000	83.19462	-49.25687	83.19462
14600.00000	83.07701	-49.57097	83.07701
14650.00000	83.67214	-47.33118	83.67214
14700.00000	83.67924	-50.25903	83.67924
14750.00000	83.68723	-49.53922	83.68723
14800.00000	83.64207	-47.58017	83.64207
14850.00000	83.96871	-46.68553	83.96871
14900.00000	84.27173	-47.09325	84.27173
14950.00000	84.62206	-46.55045	84.62206
15000.00000	84.98376	-45.30500	84.98376
15050.00000	84.71688	-43.14212	84.71688
15100.00000	84.93520	-42.77101	84.93520
15150.00000	85.21766	-43.60497	85.21766
15200.00000	85.32604	-41.95170	85.32604
15250.00000	85.48206	-42.53809	85.48206
15300.00000	85.83120	-42.00138	85.83120
15350.00000	86.16048	-41.44356	86.16048
15400.00000	86.16669	-39.76009	86.16669
15450.00000	86.36700	-40.66239	86.36700
15500.00000	86.96590	-39.87459	86.96590
15550.00000	87.20704	-40.73265	87.20704
15600.00000	87.55758	-41.08496	87.55758
15650.00000	88.00310	-38.85238	88.00310
15700.00000	88.28004	-39.86388	88.28004
15750.00000	88.66374	-39.33271	88.66374
15800.00000	89.01375	-39.17101	89.01375
15850.00000	89.53811	-40.04344	89.53811
15900.00000	89.93930	-41.73732	89.93930
15950.00000	90.49528	-42.70101	90.49528
16000.00000	90.83587	-42.34324	90.83587
16050.00000	91.33140	-44.31519	91.33140
16100.00000	91.54584	-45.69590	91.54584
16150.00000	91.87560	-47.22316	91.87560
16200.00000	92.34037	-49.80581	92.34037
16250.00000	92.92457	-51.07424	92.92457
16300.00000	93.37529	-53.15545	93.37529
16350.00000	93.77479	-55.00826	93.77479
16400.00000	94.13565	-56.68850	94.13565
16450.00000	94.43960	-58.91641	94.43960
16500.00000	94.75646	-61.70928	94.75646
16550.00000	95.14259	-64.33900	95.14259
16600.00000	95.52616	-66.58548	95.52616
16650.00000	95.87097	-68.78406	95.87097
16700.00000	96.22438	-70.88243	96.22438
16750.00000	96.35178	-74.44994	96.35178
16800.00000	96.59514	-77.39401	96.59514
16850.00000	96.99242	-80.20491	96.99242
16900.00000	97.27697	-83.32204	97.27697
16950.00000	97.55846	-85.92602	97.55846
17000.00000	97.61578	-89.10177	97.61578
17050.00000	97.87858	-91.81798	97.87858
17100.00000	97.91973	-93.73634	97.91973
17150.00000	98.25570	-97.69743	98.25570
17200.00000	98.42805	-100.01413	98.42805
17250.00000	98.52648	-103.22035	98.52648
17300.00000	98.73792	-105.87152	98.73792
17350.00000	98.73053	-108.33103	98.73053
17400.00000	98.87777	-111.12800	98.87777
17450.00000	98.95567	-114.48430	98.95567
17500.00000	99.15419	-117.01711	99.15419
17550.00000	99.28229	-119.17415	99.28229
17600.00000	99.47154	-121.18086	99.47154
17650.00000	99.49603	-124.78640	99.49603
17700.00000	99.62355	-127.72953	99.62355
17750.00000	99.87783	-129.80785	99.87783
17800.00000	99.91726	-132.43587	99.91726
17850.00000	100.04745	-134.38557	100.04745
17900.00000	100.12929	-136.94842	100.12929
17950.00000	100.35857	-140.15931	100.35857
18000.00000	100.41839	-143.17133	100.41839
18050.00000	100.68139	-145.34693	100.68139
18100.00000	100.73776	-148.49269	100.73776
18150.00000	100.83416	-150.43097	100.83416
18200.00000	100.82970	-153.82111	100.82970
18250.00000	100.99153	-155.63785	100.99153
18300.00000	101.14289	-158.38138	101.14289
18350.00000	101.26374	-160.85679	101.26374
18400.00000	101.32684	-163.58177	101.32684
18450.00000	101.40337	-167.15952	101.40337
18500.00000	101.49891	-169.68687	101.49891
18550.00000	101.60273	-171.86287	101.60273
18600.00000	101.82942	-175.26153	101.82942
18650.00000	101.83028	-177.61847	101.83028
18700.00000	101.92932	-180.58020	101.92932
18750.00000	102.06317	-183.43207	102.06317
18800.00000	102.25692	-185.61842	102.25692
18850.00000	102.19098	-188.73778	102.19098
18900.00000	102.27146	-191.32188	102.27146
18950.00000	102.39682	-194.40683	102.39682
19000.00000	102.30077	-196.65825	102.30077
19050.00000	102.51350	-199.57371	102.51350
19100.00000	102.57668	-201.90439	102.57668
19150.00000	102.79008	-204.42256	102.79008
19200.00000	102.87793	-206.61096	102.87793
19250.00000	102.94852	-210.47405	102.94852
19300.00000	102.99100	-212.29628	102.99100
19350.00000	103.13960	-215.27228	103.13960
19400.00000	103.18815	-217.99171	103.18815
19450.00000	103.42929	-220.21943	103.42929
19500.00000	103.45559	-223.98819	103.45559
19550.00000	103.58635	-226.74339	103.58635
19600.00000	103.76537	-230.17963	103.76537
19650.00000	103.81940	-232.89572	103.81940
19700.00000	103.84123	-236.09507	103.84123
19750.00000	103.93497	-238.77227	103.93497
19800.00000	104.12669	-242.81994	104.12669
19850.00000	104.21331	-245.78307	104.21331
19900.00000	104.24006	-250.07475	104.24006
19950.00000	104.26921	-253.39013	104.26921
20000.00000	104.32746	-256.84914	104.32746
20050.00000	104.37466	-260.23965	104.37466
20100.00000	104.29306	-263.84747	104.29306
20150.00000	104.35546	-266.55539	104.35546
20200.00000	104.30522	-270.77961	104.30522
20250.00000	104.19859	-274.21095	104.19859
20300.00000	104.07038	-277.61157	104.07038
20350.00000	104.05835	-281.10399	104.05835
20400.00000	103.89864	-283.58137	103.89864
20450.00000	103.71517	-286.78769	103.71517
20500.00000	103.65124	-290.13881	103.65124
20550.00000	103.28665	-292.15798	103.28665
20600.00000	103.23101	-294.60240	103.23101
20650.00000	103.07969	-297.03071	103.07969
20700.00000	102.88496	-299.18685	102.88496
20750.00000	102.79885	-301.09405	102.79885
20800.00000	102.62198	-302.55981	102.62198
20850.00000	102.55249	-304.34881	102.55249
20900.00000	102.40767	-305.85671	102.40767
20950.00000	102.32561	-306.65365	102.32561
21000.00000	102.27979	-307.77274	102.27979
21050.00000	102.41744	-308.59952	102.41744
21100.00000	102.44630	-309.42726	102.44630
21150.00000	102.60113	-310.86042	102.60113
21200.00000	102.76047	-311.89293	102.76047
21250.00000	102.91331	-314.40199	102.91331
21300.00000	103.14717	-315.72796	103.14717
21350.00000	103.31212	-317.62625	103.31212
21400.00000	103.47816	-320.31000	103.47816
21450.00000	103.67127	-322.90858	103.67127
21500.00000	103.83872	-325.98675	103.83872
21550.00000	103.87601	-328.56743	103.87601
21600.00000	104.06577	-331.72830	104.06577
21650.00000	104.12277	-335.01791	104.12277
21700.00000	104.16912	-337.84286	104.16912
21750.00000	104.21695	-341.04767	104.21695
21800.00000	104.24877	-344.05919	104.24877
21850.00000	104.18517	-346.87066	104.18517
21900.00000	104.20292	-349.87058	104.20292
21950.00000	104.17493	-352.48103	104.17493
22000.00000	104.20655	-355.21856	104.20655
22050.00000	104.13811	-357.47192	104.13811
22100.00000	104.11396	-360.06291	104.11396
22150.00000	104.07060	-362.54340	104.07060
22200.00000	104.11019	-364.97865	104.11019
22250.00000	104.06894	-367.15350	104.06894
22300.00000	103.93156	-369.66145	103.93156
22350.00000	104.08834	-372.05073	104.08834
22400.00000	104.05162	-374.64474	104.05162
22450.00000	104.01781	-376.67140	104.01781
22500.00000	103.94783	-378.07130	103.94783
22550.00000	103.98773	-380.74456	103.98773
22600.00000	103.98174	-383.76406	103.98174
22650.00000	104.02912	-385.78406	104.02912
22700.00000	104.01611	-387.89512	104.01611
22750.00000	104.04712	-388.79386	104.04712
22800.00000	104.10646	-393.00197	104.10646
22850.00000	104.19940	-395.92179	104.19940
22900.00000	104.25241	-396.98312	104.25241
22950.00000	104.32516	-399.72750	104.32516
23000.00000	104.34684	-401.48080	104.34684
23050.00000	104.32632	-404.92851	104.32632
23100.00000	104.47268	-406.46200	104.47268
23150.00000	104.36791	-408.23504	104.36791
23200.00000	104.59426	-411.96753	104.59426
23250.00000	104.47542	-415.82329	104.47542
23300.00000	104.76793	-418.50003	104.76793
23350.00000	104.50630	-421.28897	104.50630
23400.00000	104.63000	-424.23343	104.63000
23450.00000	104.74538	-427.60953	104.74538
23500.00000	104.66396	-429.94429	104.66396
23550.00000	104.65768	-431.16101	104.65768
23600.00000	104.59787	-436.35721	104.59787
23650.00000	104.67754	-438.84536	104.67754
23700.00000	104.85377	-444.46928	104.85377
23750.00000	104.76180	-446.86152	104.76180
23800.00000	104.46720	-448.74055	104.46720
23850.00000	104.54408	-451.67311	104.54408
23900.00000	104.87363	-455.34600	104.87363
23950.00000	104.48199	-459.97752	104.48199
24000.00000	104.21877	-464.33469	104.21877
24050.00000	104.29006	-466.00380	104.29006
24100.00000	104.43537	-471.40175	104.43537
24150.00000	104.21414	-474.52604	104.21414
24200.00000	103.99066	-479.32921	103.99066
24250.00000	103.45474	-480.55445	103.45474
24300.00000	103.67263	-484.36907	103.67263
24350.00000	103.28552	-487.96185	103.28552
24400.00000	102.95083	-492.20480	102.95083
24450.00000	102.54456	-494.12794	102.54456
24500.00000	102.76277	-496.41799	102.76277
24550.00000	102.31894	-141.74817	102.31894
24600.00000	102.48688	216.48035	102.48688
24650.00000	101.94921	571.84336	101.94921
24700.00000	101.48761	931.54957	101.48761
24750.00000	101.48127	1287.21660	101.48127
24800.00000	101.15495	1644.70582	101.15495
24850.00000	100.48119	2003.39696	100.48119
24900.00000	100.51525	2362.45995	100.51525
24950.00000	100.44210	2717.41407	100.44210
25000.00000	100.19567	2710.13633	100.19567
25050.00000	99.56734	2713.74713	99.56734
25100.00000	99.19549	2710.30928	99.19549
25150.00000	99.41211	2711.23811	99.41211
25200.00000	98.81554	2705.78589	98.81554
25250.00000	98.66190	2707.18482	98.66190
25300.00000	98.66078	2705.77918	98.66078
25350.00000	98.34148	2699.31018	98.34148
25400.00000	98.04441	2696.74657	98.04441
25450.00000	98.04960	2696.34134	98.04960
25500.00000	97.66164	2693.81404	97.66164
25550.00000	97.46684	2692.53976	97.46684
25600.00000	97.46967	2690.42874	97.46967
25650.00000	97.18668	2690.61232	97.18668
25700.00000	97.15830	2687.12264	97.15830
25750.00000	96.61952	2685.41368	96.61952
25800.00000	96.51484	2682.80974	96.51484
25850.00000	96.31891	2681.22760	96.31891
25900.00000	96.15870	2677.72122	96.15870
25950.00000	95.96352	2680.63122	95.96352
26000.00000	95.72148	2676.11297	95.72148
26050.00000	95.61618	2674.95974	95.61618
26100.00000	95.56217	2673.40670	95.56217
26150.00000	95.30178	2671.85231	95.30178
26200.00000	95.41320	2669.66097	95.41320
26250.00000	95.18427	2668.79468	95.18427
26300.00000	95.24381	2665.78504	95.24381
26350.00000	94.54605	2665.90760	94.54605
26400.00000	94.64038	2663.22495	94.64038
26450.00000	94.68603	2660.47880	94.68603
26500.00000	94.33207	2658.11499	94.33207
26550.00000	94.19198	2653.40883	94.19198
26600.00000	93.83093	2652.55862	93.83093
26650.00000	93.83732	2654.71067	93.83732
26700.00000	93.66881	2652.03489	93.66881
26750.00000	93.31931	2649.84837	93.31931
26800.00000	93.22889	2645.67604	93.22889
26850.00000	93.37124	2645.38056	93.37124
26900.00000	93.14557	2645.32177	93.14557
26950.00000	92.93480	2641.79473	92.93480
27000.00000	92.33746	2640.57480	92.33746
27050.00000	92.54112	2639.37106	92.54112
27100.00000	92.01885	2638.27282	92.01885
27150.00000	91.74123	2636.50469	91.74123
27200.00000	91.81652	2636.65589	91.81652
27250.00000	91.24489	2637.66328	91.24489
27300.00000	90.96336	2634.79889	90.96336
27350.00000	91.00514	2634.41897	91.00514
27400.00000	90.78912	2634.07519	90.78912
27450.00000	90.23016	2631.97957	90.23016
27500.00000	90.40329	2633.67522	90.40329
27550.00000	90.46058	2633.02403	90.46058
27600.00000	90.57200	2629.73054	90.57200
27650.00000	89.87588	2632.16846	89.87588
27700.00000	89.78097	2628.31473	89.78097
27750.00000	89.78926	2629.22211	89.78926
27800.00000	89.97140	2626.72524	89.97140
27850.00000	90.26257	2631.48920	90.26257
27900.00000	89.36494	2628.58836	89.36494
27950.00000	89.11954	2628.76951	89.11954
28000.00000	89.43743	2628.87259	89.43743
28050.00000	90.01090	2625.58192	90.01090
28100.00000	89.59182	2626.19019	89.59182
28150.00000	89.17334	2625.51919	89.17334
28200.00000	89.42139	2623.62926	89.42139
28250.00000	89.44180	2621.68388	89.44180
28300.00000	88.95301	2623.97307	88.95301
28350.00000	89.13421	2624.93255	89.13421
28400.00000	89.24048	2623.68134	89.24048
28450.00000	89.64334	2622.02029	89.64334
28500.00000	89.34954	2623.86358	89.34954
28550.00000	89.44525	2623.64661	89.44525
28600.00000	89.32087	2623.68869	89.32087
28650.00000	89.98094	2620.27487	89.98094
28700.00000	89.63461	2624.54030	89.63461
28750.00000	90.30058	2622.81695	90.30058
28800.00000	90.23832	2619.71091	90.23832
28850.00000	89.23261	2617.14780	89.23261
28900.00000	90.06302	2615.61758	90.06302
28950.00000	90.04456	2618.58560	90.04456
29000.00000	90.06263	2618.00429	90.06263
29050.00000	89.88342	2618.30038	89.88342
29100.00000	89.94697	2617.05159	89.94697
29150.00000	89.56726	2617.96370	89.56726
29200.00000	89.43079	2616.23990	89.43079
29250.00000	90.42827	2617.40256	90.42827
29300.00000	90.06805	2615.34024	90.06805
29350.00000	90.29999	2613.24222	90.29999
29400.00000	90.25551	2613.37090	90.25551
29450.00000	90.53234	2613.82236	90.53234
29500.00000	90.77117	2614.65904	90.77117
29550.00000	90.63473	2610.57435	90.63473
29600.00000	90.76942	2612.63186	90.76942
29650.00000	91.10617	2610.31839	91.10617
29700.00000	90.83563	2612.73191	90.83563
29750.00000	91.00402	2613.27484	91.00402
29800.00000	90.98463	2612.17009	90.98463
29850.00000	91.42011	2610.16747	91.42011
29900.00000	91.56118	2612.68401	91.56118
29950.00000	90.94746	2612.22259	90.94746
30000.00000	91.68070	2614.33504	91.68070
30050.00000	92.00368	2611.89381	92.00368
30100.00000	91.87471	2613.70457	91.87471
30150.00000	92.25569	2610.43394	92.25569
30200.00000	92.52914	2608.66168	92.52914
30250.00000	92.49458	2609.92356	92.49458
30300.00000	92.64636	2609.75784	92.64636
30350.00000	92.90223	2612.42190	92.90223
30400.00000	93.24572	2611.19737	93.24572
30450.00000	93.21465	2610.27985	93.21465
30500.00000	93.43034	2610.54043	93.43034
30550.00000	93.71083	2611.01533	93.71083
30600.00000	94.05830	2611.45706	94.05830
30650.00000	94.33896	2611.26918	94.33896
30700.00000	94.73532	2609.50651	94.73532
30750.00000	94.91077	2610.77107	94.91077
30800.00000	95.31779	2609.70293	95.31779
30850.00000	95.74357	2611.16436	95.74357
30900.00000	95.93875	2611.64651	95.93875
30950.00000	96.65746	2610.26512	96.65746
31000.00000	97.15606	2608.47107	97.15606
31050.00000	97.73037	2608.79295	97.73037
31100.00000	98.37189	2607.97241	98.37189
31150.00000	98.58647	2605.83873	98.58647
31200.00000	99.57422	2604.33019	99.57422
31250.00000	100.01241	2602.36602	100.01241
31300.00000	100.50263	2600.03698	100.50263
31350.00000	101.24092	2597.59761	101.24092
31400.00000	101.56531	2593.54068	101.56531
31450.00000	102.18064	2590.84067	102.18064
31500.00000	102.63092	2586.47324	102.63092
31550.00000	103.16557	2583.11641	103.16557
31600.00000	103.80256	2578.27487	103.80256
31650.00000	104.09209	2573.88665	104.09209
31700.00000	104.47597	2570.33218	104.47597
31750.00000	104.92888	2566.97834	104.92888
31800.00000	105.17931	2561.37233	105.17931
31850.00000	105.49678	2556.54157	105.49678
31900.00000	105.74031	2552.43014	105.74031
31950.00000	106.02633	2547.51720	106.02633
32000.00000	106.23164	2542.07673	106.23164
32050.00000	106.42040	2538.00446	106.42040
32100.00000	106.53735	2532.42518	106.53735
32150.00000	106.70177	2528.94268	106.70177
32200.00000	106.95095	2523.72105	106.95095
32250.00000	106.95996	2518.24813	106.95996
32300.00000	107.10175	2514.62706	107.10175
32350.00000	107.18455	2510.09886	107.18455
32400.00000	107.27316	2505.49307	107.27316
32450.00000	107.24680	2500.29548	107.24680
32500.00000	107.29193	2496.55042	107.29193
32550.00000	107.41295	2491.22984	107.41295
32600.00000	107.29476	2487.07718	107.29476
32650.00000	107.36777	2482.87100	107.36777
32700.00000	107.25560	2478.28989	107.25560
32750.00000	107.15846	2473.39379	107.15846
32800.00000	107.21036	2470.63705	107.21036
32850.00000	107.23323	2465.58175	107.23323
32900.00000	107.05184	2460.99044	107.05184
32950.00000	106.82600	2455.87579	106.82600
33000.00000	106.70666	2454.89092	106.70666
33050.00000	106.59824	2449.08077	106.59824
33100.00000	106.51687	2445.31244	106.51687
33150.00000	106.35331	2442.37002	106.35331
33200.00000	106.37776	2439.91835	106.37776
33250.00000	106.11320	2436.02020	106.11320
33300.00000	105.82144	2431.61040	105.82144
33350.00000	105.72668	2428.23167	105.72668
33400.00000	105.48584	2425.97566	105.48584
33450.00000	105.45224	2422.98847	105.45224
33500.00000	105.32096	2421.01938	105.32096
33550.00000	105.03373	2415.85859	105.03373
33600.00000	105.01105	2414.86503	105.01105
33650.00000	104.89352	2411.72841	104.89352
33700.00000	104.73526	2408.74561	104.73526
33750.00000	104.47596	2406.06702	104.47596
33800.00000	104.37369	2403.34387	104.37369
33850.00000	103.86661	2401.34745	103.86661
33900.00000	104.01960	2398.86129	104.01960
33950.00000	103.63547	2396.94212	103.63547
34000.00000	103.73861	2394.18933	103.73861
34050.00000	103.42369	2393.13301	103.42369
34100.00000	102.99516	2391.02428	102.99516
34150.00000	103.05108	2388.75698	103.05108
34200.00000	102.98052	2388.35357	102.98052
34250.00000	102.94521	2384.92603	102.94521
34300.00000	102.91040	2383.41763	102.91040
34350.00000	102.87930	2383.54525	102.87930
34400.00000	102.62230	2381.13616	102.62230
34450.00000	102.72089	2375.61033	102.72089
34500.00000	102.08565	2377.25125	102.08565
34550.00000	102.33507	2375.71416	102.33507
34600.00000	101.95743	2371.60030	101.95743
34650.00000	101.99608	2374.26353	101.99608
34700.00000	101.60910	2373.42874	101.60910
34750.00000	101.85370	2367.26424	101.85370
34800.00000	101.98863	2368.72946	101.98863
34850.00000	101.87054	2370.67667	101.87054
34900.00000	102.21218	2367.39467	102.21218
34950.00000	101.77992	2365.87852	101.77992
35000.00000	101.89174	2363.02007	101.89174
35050.00000	102.01978	2364.36645	102.01978
35100.00000	102.14363	2361.91559	102.14363
35150.00000	101.78503	2360.22346	101.78503
35200.00000	101.73847	2358.89371	101.73847
35250.00000	101.74607	2357.61031	101.74607
35300.00000	101.84924	2355.27120	101.84924
35350.00000	102.03284	2353.17173	102.03284
35400.00000	101.84215	2351.57122	101.84215
35450.00000	101.82554	2353.64707	101.82554
35500.00000	101.54221	2353.56910	101.54221
35550.00000	101.83938	2353.25832	101.83938
35600.00000	101.77748	2350.63745	101.77748
35650.00000	101.85590	2349.57504	101.85590
35700.00000	101.99096	2349.51881	101.99096
35750.00000	101.87598	2348.11412	101.87598
35800.00000	101.78621	2348.25400	101.78621
35850.00000	101.96359	2345.83899	101.96359
35900.00000	101.66805	2344.96787	101.66805
35950.00000	102.33201	2344.98453	102.33201
36000.00000	102.20775	2346.37244	102.20775
36050.00000	102.41017	2342.31086	102.41017
36100.00000	102.92786	2340.56009	102.92786
36150.00000	102.24355	2339.66751	102.24355
36200.00000	102.69535	2340.17024	102.69535
36250.00000	102.83760	2340.50874	102.83760
36300.00000	102.82317	2337.41601	102.82317
36350.00000	103.11920	2338.35393	103.11920
36400.00000	103.05963	2338.36498	103.05963
36450.00000	103.18294	2337.68891	103.18294
36500.00000	103.49575	2337.05426	103.49575
36550.00000	103.54142	2335.08620	103.54142
36600.00000	103.53812	2333.58109	103.53812
36650.00000	104.26697	2332.88941	104.26697
36700.00000	104.49134	2329.42008	104.49134
36750.00000	104.43668	2327.71680	104.43668
36800.00000	104.51334	2326.96935	104.51334
36850.00000	104.61606	2326.31180	104.61606
36900.00000	105.02711	2324.80634	105.02711
36950.00000	104.91307	2320.22036	104.91307
37000.00000	104.81821	2320.60668	104.81821
37050.00000	105.15854	2319.90893	105.15854
37100.00000	105.65836	2316.21535	105.65836
37150.00000	105.59178	2314.04626	105.59178
37200.00000	106.09191	2312.81769	106.09191
37250.00000	105.69755	2309.99086	105.69755
37300.00000	105.97936	2308.61176	105.97936
37350.00000	106.36326	2306.49430	106.36326
37400.00000	106.23949	2306.60269	106.23949
37450.00000	106.45684	2304.82287	106.45684
37500.00000	106.93920	2301.41121	106.93920
37550.00000	106.85071	2298.78053	106.85071
37600.00000	107.14524	2297.95027	107.14524
37650.00000	107.51631	2296.54664	107.51631
37700.00000	107.63249	2292.80872	107.63249
37750.00000	107.94743	2290.15994	107.94743
37800.00000	108.22602	2288.62651	108.22602
37850.00000	108.30903	2284.54823	108.30903
37900.00000	108.57781	2281.58630	108.57781
37950.00000	108.87618	2281.02819	108.87618
38000.00000	109.08350	2278.18485	109.08350
38050.00000	109.54611	2274.85503	109.54611
38100.00000	109.93238	2271.42365	109.93238
38150.00000	110.27522	2267.09260	110.27522
38200.00000	110.67614	2263.58228	110.67614
38250.00000	110.89653	2259.34198	110.89653
38300.00000	111.36964	2255.81895	111.36964
38350.00000	111.73840	2251.93076	111.73840
38400.00000	111.97295	2247.86931	111.97295
38450.00000	112.32831	2242.87657	112.32831
38500.00000	112.77039	2237.68210	112.77039
38550.00000	113.18436	2232.90284	113.18436
38600.00000	113.43782	2227.76320	113.43782
38650.00000	113.81453	2222.50666	113.81453
38700.00000	114.05870	2216.62820	114.05870
38750.00000	114.35873	2210.94394	114.35873
38800.00000	114.58869	2205.19048	114.58869
38850.00000	114.71243	2199.23862	114.71243
38900.00000	114.99248	2193.23472	114.99248
38950.00000	115.09064	2187.14668	115.09064
39000.00000	115.28020	2181.10646	115.28020
39050.00000	115.41262	2174.85947	115.41262
39100.00000	115.34424	2168.63190	115.34424
39150.00000	115.30691	2162.16720	115.30691
39200.00000	115.35502	2156.63286	115.35502
39250.00000	115.33911	2150.13956	115.33911
39300.00000	115.21145	2143.76177	115.21145
39350.00000	115.11568	2138.42523	115.11568
39400.00000	114.96013	2132.15549	114.96013
39450.00000	114.75180	2126.69926	114.75180
39500.00000	114.65479	2121.45715	114.65479
39550.00000	114.36114	2115.91707	114.36114
39600.00000	114.00042	2110.52644	114.00042
39650.00000	113.87702	2106.19989	113.87702
39700.00000	113.47474	2101.22667	113.47474
39750.00000	113.25755	2096.22763	113.25755
39800.00000	112.99016	2091.86364	112.99016
39850.00000	112.65170	2086.97157	112.65170
39900.00000	112.30699	2083.43143	112.30699
39950.00000	111.98072	2079.10832	111.98072
40000.00000	111.50069	2075.96541	111.50069
40050.00000	111.27919	2071.53861	111.27919
40100.00000	110.94123	2068.31254	110.94123
40150.00000	110.56382	2064.95810	110.56382
40200.00000	110.21185	2061.37165	110.21185
40250.00000	109.82618	2058.82404	109.82618
40300.00000	109.55970	2056.24610	109.55970
40350.00000	109.05713	2053.49279	109.05713
40400.00000	108.61731	2051.02569	108.61731
40450.00000	108.38707	2048.19157	108.38707
40500.00000	108.09926	2046.93086	108.09926
40550.00000	107.78156	2043.84069	107.78156
40600.00000	107.41569	2041.87433	107.41569
40650.00000	107.03352	2040.71553	107.03352
40700.00000	106.70444	2039.72115	106.70444
40750.00000	106.51384	2037.96084	106.51384
40800.00000	106.16850	2035.82156	106.16850
40850.00000	105.77079	2035.42807	105.77079
40900.00000	105.46491	2033.23217	105.46491
40950.00000	105.09030	2033.34938	105.09030
41000.00000	104.59693	2032.07893	104.59693
41050.00000	104.56050	2031.49329	104.56050
41100.00000	104.42066	2028.94337	104.42066
41150.00000	104.17842	2030.65096	104.17842
41200.00000	103.94935	2028.97949	103.94935
41250.00000	103.68493	2027.20274	103.68493
41300.00000	102.90334	2027.59797	102.90334
41350.00000	102.86834	2029.98574	102.86834
41400.00000	102.73685	2023.67418	102.73685
41450.00000	102.58119	2026.27815	102.58119
41500.00000	102.28190	2026.17846	102.28190
41550.00000	101.82127	2028.13068	101.82127
41600.00000	101.29545	2024.78802	101.29545
41650.00000	101.23242	2026.88761	101.23242
41700.00000	100.86723	2025.50064	100.86723
41750.00000	100.58494	2029.71973	100.58494
41800.00000	99.51558	2027.14497	99.51558
41850.00000	98.71915	2028.92298	98.71915
41900.00000	98.61214	2029.01055	98.61214
41950.00000	98.79346	2032.39963	98.79346
42000.00000	97.92821	2031.84821	97.92821
42050.00000	97.48448	2029.41017	97.48448
42100.00000	96.79619	2031.14848	96.79619
42150.00000	96.02495	2033.06539	96.02495
42200.00000	95.96970	2037.74266	95.96970
42250.00000	95.87127	2035.80994	95.87127
42300.00000	93.91426	2043.26290	93.91426
42350.00000	95.25804	2039.32272	95.25804
42400.00000	94.65705	2040.92759	94.65705
42450.00000	94.69599	2047.43519	94.69599
42500.00000	93.42606	2045.88854	93.42606
42550.00000	93.58081	2067.13916	93.58081
42600.00000	93.07110	2052.00735	93.07110
42650.00000	90.83463	2053.98641	90.83463
42700.00000	91.57968	2064.10756	91.57968
42750.00000	91.76464	2054.07779	91.76464
42800.00000	92.01289	2061.63308	92.01289
42850.00000	92.26328	2050.93834	92.26328
42900.00000	93.47954	2047.44328	93.47954
42950.00000	92.66522	2044.81486	92.66522
43000.00000	92.37278	2043.42826	92.37278
43050.00000	93.42418	2031.30483	93.42418
43100.00000	93.75064	2039.77874	93.75064
43150.00000	91.96229	2032.75729	91.96229
43200.00000	94.67680	2037.16955	94.67680
43250.00000	92.93324	2044.58920	92.93324
43300.00000	93.02892	2032.18442	93.02892
43350.00000	94.70418	2022.29220	94.70418
43400.00000	95.15883	2014.11247	95.15883
43450.00000	96.34040	2020.93462	96.34040
43500.00000	96.10686	2010.23549	96.10686
43550.00000	97.25941	2003.40628	97.25941
43600.00000	96.51094	1996.35595	96.51094
43650.00000	97.86026	1983.97825	97.86026
43700.00000	97.38135	1987.62972	97.38135
43750.00000	98.44560	1987.06080	98.44560
43800.00000	98.70953	1977.04892	98.70953
43850.00000	99.43904	1971.07945	99.43904
43900.00000	99.99363	1965.72004	99.99363
43950.00000	100.44940	1958.67014	100.44940
44000.00000	100.61083	1953.72524	100.61083
44050.00000	100.85897	1943.76604	100.85897
44100.00000	101.56828	1932.48059	101.56828
44150.00000	101.10250	1937.98065	101.10250
44200.00000	101.95984	1930.80535	101.95984
44250.00000	102.64819	1924.20979	102.64819
44300.00000	102.67329	1911.36317	102.67329
44350.00000	102.07440	1907.26823	102.07440
44400.00000	103.31060	1903.06467	103.31060
44450.00000	103.40720	1897.90309	103.40720
44500.00000	103.09079	1895.17762	103.09079
44550.00000	104.97318	1883.17328	104.97318
44600.00000	103.68092	1884.17014	103.68092
44650.00000	103.41804	1869.71133	103.41804
44700.00000	103.41383	1871.94035	103.41383
44750.00000	103.20425	1866.07160	103.20425
44800.00000	104.54473	1858.86021	104.54473
44850.00000	103.89909	1853.02761	103.89909
44900.00000	103.17721	1852.22424	103.17721
44950.00000	103.66915	1845.39374	103.66915
45000.00000	103.94671	1836.50994	103.94671
45050.00000	102.06512	1841.09368	102.06512
45100.00000	102.66527	1832.97199	102.66527
45150.00000	103.06130	1820.90056	103.06130
45200.00000	102.10300	1824.24324	102.10300
45250.00000	102.18769	1817.66640	102.18769
45300.00000	101.99752	1816.35927	101.99752
45350.00000	102.22301	1808.34427	102.22301
45400.00000	102.05780	1804.43482	102.05780
45450.00000	101.73963	1800.44149	101.73963
45500.00000	100.58130	1791.94534	100.58130
45550.00000	100.25352	1795.77890	100.25352
45600.00000	101.65180	1787.21479	101.65180
45650.00000	100.21045	1781.87004	100.21045
45700.00000	99.27962	1782.57224	99.27962
45750.00000	99.95782	1785.37209	99.95782
45800.00000	98.76571	1776.47558	98.76571
45850.00000	99.07835	1774.90692	99.07835
45900.00000	99.02657	1771.64576	99.02657
45950.00000	98.35474	1778.50807	98.35474
46000.00000	96.80092	1755.23540	96.80092
46050.00000	97.01428	1756.74624	97.01428
46100.00000	95.92625	1759.84010	95.92625
46150.00000	95.72119	1758.85075	95.72119
46200.00000	94.05540	1746.17559	94.05540
46250.00000	94.67760	1752.05079	94.67760
46300.00000	93.92020	1751.05688	93.92020
46350.00000	95.24036	1744.23647	95.24036
46400.00000	93.48408	1741.82695	93.48408
46450.00000	92.20159	1741.47119	92.20159
46500.00000	92.62395	1739.95146	92.62395
46550.00000	91.53842	1755.89637	91.53842
46600.00000	92.07872	1752.62127	92.07872
46650.00000	90.10500	1745.20064	90.10500
46700.00000	89.36049	1754.49621	89.36049
46750.00000	90.83013	1763.64228	90.83013
46800.00000	89.11333	1753.30712	89.11333
46850.00000	89.65806	1413.60655	89.65806
46900.00000	89.88816	1403.30199	89.88816
46950.00000	90.95921	1398.21064	90.95921
47000.00000	90.55975	1409.79557	90.55975
47050.00000	92.32781	1399.67564	92.32781
47100.00000	90.88332	1393.72366	90.88332
47150.00000	92.15180	1400.07416	92.15180
47200.00000	90.51958	1401.71499	90.51958
47250.00000	92.40175	1400.75432	92.40175
47300.00000	92.59281	1391.69988	92.59281
47350.00000	91.50994	1039.99846	91.50994
47400.00000	90.93310	1045.59564	90.93310
47450.00000	92.34058	1038.56333	92.34058
47500.00000	90.82259	1024.29496	90.82259
47550.00000	90.46998	673.30836	90.46998
47600.00000	90.71259	665.69484	90.71259
47650.00000	92.42786	662.75163	92.42786
47700.00000	91.80411	671.40986	91.80411
47750.00000	89.23037	662.48444	89.23037
47800.00000	90.70392	650.24958	90.70392
47850.00000	91.13833	302.47833	91.13833
47900.00000	91.01956	-50.33435	91.01956
47950.00000	90.16776	-51.99139	90.16776
48000.00000	89.46278	-55.86967	89.46278
48050.00000	91.38373	-60.34808	91.38373
48100.00000	90.23258	-59.63037	90.23258
48150.00000	90.75652	-414.45172	90.75652
48200.00000	91.11462	-408.80546	91.11462
48250.00000	90.11967	-426.98971	90.11967
48300.00000	91.26424	-418.56399	91.26424
48350.00000	90.96316	-430.25543	90.96316
48400.00000	91.83063	-773.61121	91.83063
48450.00000	92.76850	-779.61536	92.76850
48500.00000	91.29283	-782.10781	91.29283
48550.00000	90.47936	-788.73987	90.47936
48600.00000	92.88493	-1143.62981	92.88493
48650.00000	93.52913	-1143.13963	93.52913
48700.00000	93.87482	-1151.38475	93.87482
48750.00000	92.01884	-1505.89805	92.01884
48800.00000	93.04445	-1516.96474	93.04445
48850.00000	92.66035	-1518.91214	92.66035
48900.00000	92.03178	-1875.30899	92.03178
48950.00000	93.49422	-1885.80709	93.49422
49000.00000	93.02212	-1884.20494	93.02212
49050.00000	91.62841	-1897.10235	91.62841
49100.00000	91.82161	-2248.61929	91.82161
49150.00000	92.76780	-2607.31168	92.76780
49200.00000	92.97561	-2625.02584	92.97561
49250.00000	93.16900	-2962.20401	93.16900
49300.00000	92.80777	-2626.97294	92.80777
49350.00000	91.33346	-2612.07588	91.33346
49400.00000	90.67841	-2266.51876	90.67841
49450.00000	90.53337	-1903.83745	90.53337
49500.00000	92.86273	-1555.14382	92.86273
49550.00000	92.28931	-1206.78232	92.28931
49600.00000	90.61769	-1200.62695	90.61769
49650.00000	88.70354	-1176.31372	88.70354
49700.00000	89.01517	-842.09369	89.01517
49750.00000	89.69391	-838.89426	89.69391
49800.00000	86.13848	-851.23100	86.13848
49850.00000	89.27166	-820.54947	89.27166
49900.00000	86.58411	-464.54568	86.58411
49950.00000	87.57217	-126.07423	87.57217
