---ACOUSTIC CALIBRATION---
Filename: C:\Data\AZH DATA\AZH62\RightSecondary.calib
Date: 8/27/2019 3:44:54 PM
Format: 4
Probe Tube Correction File: C:\Data\Probe Tube Calibrations\50_ProbeTube.calib
Experiment VIs: 850
EPL_CFTS.exe V12.0.1 (2012)
DAQmx V9.6

Attenuation (dB): 40.000000
Min Freq (Hz): 50.000000
Max Freq (Hz): 49950.000000
Freq Step (Hz): 50.000000
Sample Rate (Hz): 100000.000000
[Smoothing]
Method=None
MA.Iterations=0
MA.Length=0
Loess.Length=0
Loess.Type=Linear
Loess.Robust=FALSE


Freq(Hz)	Mag(dB)	Phase(deg)	Unsmoothed(dB)

50.00000	102.64221	526.78463	102.64221
100.00000	58.55737	675.15958	58.55737
150.00000	77.63151	504.94961	77.63151
200.00000	70.69850	460.51254	70.69850
250.00000	83.51694	650.18298	83.51694
300.00000	81.05050	763.37603	81.05050
350.00000	78.13367	698.51714	78.13367
400.00000	77.91531	668.92665	77.91531
450.00000	79.11043	690.40873	79.11043
500.00000	77.89755	731.74352	77.89755
550.00000	82.94202	709.52819	82.94202
600.00000	84.47825	705.03345	84.47825
650.00000	89.52526	710.32490	89.52526
700.00000	90.79387	688.24357	90.79387
750.00000	93.30341	686.86682	93.30341
800.00000	95.72065	674.01907	95.72065
850.00000	98.49768	666.13519	98.49768
900.00000	100.04553	646.94055	100.04553
950.00000	101.29736	631.03741	101.29736
1000.00000	101.19917	611.83185	101.19917
1050.00000	100.69250	603.64081	100.69250
1100.00000	101.10819	592.75727	101.10819
1150.00000	100.43911	582.23187	100.43911
1200.00000	100.39999	580.20913	100.39999
1250.00000	100.36107	566.83227	100.36107
1300.00000	99.60181	560.02113	99.60181
1350.00000	98.58908	553.27357	98.58908
1400.00000	97.71825	556.53151	97.71825
1450.00000	97.92475	557.20423	97.92475
1500.00000	98.21465	555.95655	98.21465
1550.00000	98.15728	555.59213	98.15728
1600.00000	98.86266	553.74496	98.86266
1650.00000	99.99339	544.19370	99.99339
1700.00000	98.73703	540.05983	98.73703
1750.00000	98.96947	537.87248	98.96947
1800.00000	98.43942	532.59691	98.43942
1850.00000	98.04999	533.56350	98.04999
1900.00000	98.75481	535.70496	98.75481
1950.00000	99.87229	529.53570	99.87229
2000.00000	99.98294	519.62667	99.98294
2050.00000	98.93816	516.91273	98.93816
2100.00000	99.22009	515.35483	99.22009
2150.00000	98.72488	511.70083	98.72488
2200.00000	98.48742	508.43619	98.48742
2250.00000	97.52916	506.37097	97.52916
2300.00000	97.94798	506.50838	97.94798
2350.00000	97.54798	506.68898	97.54798
2400.00000	97.60676	507.09720	97.60676
2450.00000	97.29817	503.76506	97.29817
2500.00000	97.25478	503.92584	97.25478
2550.00000	96.63779	505.27660	96.63779
2600.00000	96.52496	511.80499	96.52496
2650.00000	97.36494	517.86041	97.36494
2700.00000	99.08936	520.53433	99.08936
2750.00000	100.65978	513.36110	100.65978
2800.00000	101.37514	502.86154	101.37514
2850.00000	101.27029	494.93949	101.27029
2900.00000	100.84869	487.96003	100.84869
2950.00000	100.43088	484.50721	100.43088
3000.00000	100.16948	480.57549	100.16948
3050.00000	99.65899	476.83575	99.65899
3100.00000	99.27132	473.61295	99.27132
3150.00000	98.57315	469.68649	98.57315
3200.00000	97.84826	468.11317	97.84826
3250.00000	97.05258	466.68036	97.05258
3300.00000	95.83804	466.56856	95.83804
3350.00000	94.18651	472.58761	94.18651
3400.00000	93.33547	485.72747	93.33547
3450.00000	93.87191	499.37764	93.87191
3500.00000	95.09186	505.89922	95.09186
3550.00000	96.36155	507.55708	96.36155
3600.00000	97.06789	508.69215	97.06789
3650.00000	97.19574	508.05462	97.19574
3700.00000	96.74835	512.53226	96.74835
3750.00000	97.20432	523.20885	97.20432
3800.00000	98.70579	532.24461	98.70579
3850.00000	100.65603	537.87640	100.65603
3900.00000	102.57190	538.52625	102.57190
3950.00000	104.40117	536.05801	104.40117
4000.00000	105.86363	532.36100	105.86363
4050.00000	107.08969	527.78576	107.08969
4100.00000	108.10314	523.81652	108.10314
4150.00000	109.22507	520.16653	109.22507
4200.00000	110.08011	516.04002	110.08011
4250.00000	111.00770	512.41122	111.00770
4300.00000	111.91703	509.10091	111.91703
4350.00000	112.86058	505.89031	112.86058
4400.00000	113.90924	503.07643	113.90924
4450.00000	115.10632	499.98798	115.10632
4500.00000	116.46158	495.72152	116.46158
4550.00000	117.88977	490.08207	117.88977
4600.00000	119.29283	483.15513	119.29283
4650.00000	120.76558	474.71024	120.76558
4700.00000	122.15623	464.14530	122.15623
4750.00000	123.38978	451.32529	123.38978
4800.00000	124.30940	436.35334	124.30940
4850.00000	124.74331	420.27805	124.74331
4900.00000	124.66319	404.11839	124.66319
4950.00000	124.06453	389.24276	124.06453
5000.00000	122.98645	376.98450	122.98645
5050.00000	121.92159	368.47141	121.92159
5100.00000	120.68606	359.02793	120.68606
5150.00000	118.21419	356.78332	118.21419
5200.00000	117.19264	374.98556	117.19264
5250.00000	120.30861	380.02557	120.30861
5300.00000	121.98674	366.27114	121.98674
5350.00000	122.24470	352.83834	122.24470
5400.00000	121.98957	341.89745	121.98957
5450.00000	121.56799	333.12971	121.56799
5500.00000	121.09505	325.56183	121.09505
5550.00000	120.63682	319.01288	120.63682
5600.00000	120.17655	313.04180	120.17655
5650.00000	119.73884	307.62573	119.73884
5700.00000	119.29079	302.34497	119.29079
5750.00000	118.87574	297.58972	118.87574
5800.00000	118.45937	292.90832	118.45937
5850.00000	118.05704	288.61272	118.05704
5900.00000	117.68684	284.42910	117.68684
5950.00000	117.32196	280.35618	117.32196
6000.00000	116.95465	276.55709	116.95465
6050.00000	116.57096	272.78552	116.57096
6100.00000	116.22135	269.12307	116.22135
6150.00000	115.87892	265.58749	115.87892
6200.00000	115.51657	262.16930	115.51657
6250.00000	115.18828	258.78939	115.18828
6300.00000	114.85456	255.54840	114.85456
6350.00000	114.51083	252.34150	114.51083
6400.00000	114.18125	249.34065	114.18125
6450.00000	113.86354	246.36655	113.86354
6500.00000	113.52854	243.48924	113.52854
6550.00000	113.18558	240.58928	113.18558
6600.00000	112.84573	238.00113	112.84573
6650.00000	112.49921	235.59327	112.49921
6700.00000	112.16366	233.20178	112.16366
6750.00000	111.83162	230.96105	111.83162
6800.00000	111.48956	229.04106	111.48956
6850.00000	111.19641	227.26887	111.19641
6900.00000	110.92055	225.59547	110.92055
6950.00000	110.65924	224.17137	110.65924
7000.00000	110.43329	222.52935	110.43329
7050.00000	110.22084	220.96434	110.22084
7100.00000	110.01285	219.34479	110.01285
7150.00000	109.82154	218.10659	109.82154
7200.00000	109.62932	216.85077	109.62932
7250.00000	109.44091	215.56224	109.44091
7300.00000	109.30551	214.70071	109.30551
7350.00000	109.18150	213.88841	109.18150
7400.00000	109.14122	213.15257	109.14122
7450.00000	109.10022	212.24961	109.10022
7500.00000	109.14096	210.96701	109.14096
7550.00000	109.13060	210.30306	109.13060
7600.00000	109.19584	209.17954	109.19584
7650.00000	109.27973	207.98764	109.27973
7700.00000	109.45459	206.78648	109.45459
7750.00000	109.58419	205.21369	109.58419
7800.00000	109.76003	203.38249	109.76003
7850.00000	109.94185	201.20600	109.94185
7900.00000	110.12939	198.96268	110.12939
7950.00000	110.30947	196.21572	110.30947
8000.00000	110.46859	193.33825	110.46859
8050.00000	110.60562	190.16228	110.60562
8100.00000	110.75259	187.53832	110.75259
8150.00000	110.82198	184.31565	110.82198
8200.00000	110.92946	181.37362	110.92946
8250.00000	111.01979	177.80171	111.01979
8300.00000	111.12404	174.35928	111.12404
8350.00000	111.18113	171.08347	111.18113
8400.00000	111.21732	167.39809	111.21732
8450.00000	111.22077	163.84587	111.22077
8500.00000	111.25012	159.89696	111.25012
8550.00000	111.27413	156.12264	111.27413
8600.00000	111.24424	151.88374	111.24424
8650.00000	111.17253	147.82918	111.17253
8700.00000	111.10035	142.88792	111.10035
8750.00000	110.93152	139.37432	110.93152
8800.00000	110.78896	134.71822	110.78896
8850.00000	110.57316	130.39208	110.57316
8900.00000	110.34113	126.61444	110.34113
8950.00000	110.10172	122.68598	110.10172
9000.00000	109.81262	119.26242	109.81262
9050.00000	109.65592	115.55531	109.65592
9100.00000	109.42604	112.23734	109.42604
9150.00000	109.17452	109.01785	109.17452
9200.00000	108.96230	105.95891	108.96230
9250.00000	108.66475	103.00878	108.66475
9300.00000	108.45379	100.36576	108.45379
9350.00000	108.29011	97.60115	108.29011
9400.00000	108.00827	95.19570	108.00827
9450.00000	107.82938	92.55286	107.82938
9500.00000	107.65227	90.33133	107.65227
9550.00000	107.47154	88.16271	107.47154
9600.00000	107.40192	85.70755	107.40192
9650.00000	107.26352	83.15786	107.26352
9700.00000	107.14126	81.33665	107.14126
9750.00000	107.05243	78.34364	107.05243
9800.00000	106.85361	76.56456	106.85361
9850.00000	106.68661	74.77137	106.68661
9900.00000	106.35412	72.36791	106.35412
9950.00000	106.13235	70.37543	106.13235
10000.00000	105.90600	67.47968	105.90600
10050.00000	105.66125	64.96317	105.66125
10100.00000	105.42743	62.33040	105.42743
10150.00000	105.15177	59.10188	105.15177
10200.00000	104.99390	56.47330	104.99390
10250.00000	104.81402	53.73414	104.81402
10300.00000	104.77803	51.47259	104.77803
10350.00000	104.59299	49.60764	104.59299
10400.00000	104.34273	47.34212	104.34273
10450.00000	104.25111	45.09873	104.25111
10500.00000	104.12145	42.98753	104.12145
10550.00000	103.92621	40.54760	103.92621
10600.00000	103.72708	38.15341	103.72708
10650.00000	103.53822	36.01509	103.53822
10700.00000	103.42706	32.51832	103.42706
10750.00000	103.37370	29.84228	103.37370
10800.00000	103.23871	27.59612	103.23871
10850.00000	103.11820	24.35046	103.11820
10900.00000	102.98352	22.26645	102.98352
10950.00000	102.81769	20.37284	102.81769
11000.00000	102.62341	18.06218	102.62341
11050.00000	102.25712	15.60731	102.25712
11100.00000	101.98747	12.50248	101.98747
11150.00000	101.63098	 9.92563	101.63098
11200.00000	101.44398	 7.38828	101.44398
11250.00000	101.15890	 4.41978	101.15890
11300.00000	100.86396	 1.79708	100.86396
11350.00000	100.61241	 0.03431	100.61241
11400.00000	100.25313	-1.93473	100.25313
11450.00000	99.97042	-4.18812	99.97042
11500.00000	99.79027	-5.40612	99.79027
11550.00000	99.38381	-7.16014	99.38381
11600.00000	99.21063	-9.92219	99.21063
11650.00000	98.93940	-10.96882	98.93940
11700.00000	98.79574	-12.87442	98.79574
11750.00000	98.65098	-14.81995	98.65098
11800.00000	98.50725	-16.87569	98.50725
11850.00000	98.36959	-17.75390	98.36959
11900.00000	97.95494	-20.10646	97.95494
11950.00000	97.73940	-21.62688	97.73940
12000.00000	97.42249	-23.30499	97.42249
12050.00000	97.11821	-25.17062	97.11821
12100.00000	96.90525	-28.13583	96.90525
12150.00000	96.66199	-30.64385	96.66199
12200.00000	96.49767	-32.97383	96.49767
12250.00000	96.21330	-34.48975	96.21330
12300.00000	97.06528	-36.73795	97.06528
12350.00000	95.59869	-38.40254	95.59869
12400.00000	95.18429	-39.12466	95.18429
12450.00000	94.80283	-40.49603	94.80283
12500.00000	94.42145	-42.62204	94.42145
12550.00000	94.06995	-44.05618	94.06995
12600.00000	93.65584	-45.61281	93.65584
12650.00000	93.42848	-46.54608	93.42848
12700.00000	93.03916	-47.24724	93.03916
12750.00000	92.67765	-47.96595	92.67765
12800.00000	92.31865	-47.99949	92.31865
12850.00000	91.64575	-48.49522	91.64575
12900.00000	91.38618	-49.43554	91.38618
12950.00000	91.20292	-49.50573	91.20292
13000.00000	90.96150	-50.42188	90.96150
13050.00000	90.83136	-49.19897	90.83136
13100.00000	90.51193	-49.60117	90.51193
13150.00000	90.33556	-49.54919	90.33556
13200.00000	90.08876	-48.78114	90.08876
13250.00000	89.78020	-49.90184	89.78020
13300.00000	89.55908	-48.78002	89.55908
13350.00000	89.41933	-50.10672	89.41933
13400.00000	89.45543	-51.62061	89.45543
13450.00000	89.19148	-50.37934	89.19148
13500.00000	89.21007	-48.51095	89.21007
13550.00000	88.84182	-48.40088	88.84182
13600.00000	88.57562	-47.56502	88.57562
13650.00000	88.25678	-47.53170	88.25678
13700.00000	87.87654	-47.80702	87.87654
13750.00000	87.60632	-48.09967	87.60632
13800.00000	87.32177	-50.22187	87.32177
13850.00000	87.31113	-50.61663	87.31113
13900.00000	87.14908	-50.18741	87.14908
13950.00000	87.12653	-49.40817	87.12653
14000.00000	87.32612	-48.22141	87.32612
14050.00000	87.36723	-46.73550	87.36723
14100.00000	87.13828	-44.92869	87.13828
14150.00000	87.15140	-44.22271	87.15140
14200.00000	87.22045	-43.15384	87.22045
14250.00000	87.42897	-40.22155	87.42897
14300.00000	87.08510	-40.01705	87.08510
14350.00000	86.97881	-39.79151	86.97881
14400.00000	86.84437	-39.71906	86.84437
14450.00000	86.82718	-39.31101	86.82718
14500.00000	86.92405	-40.20117	86.92405
14550.00000	87.48335	-38.63362	87.48335
14600.00000	87.47547	-37.43073	87.47547
14650.00000	87.73554	-35.16015	87.73554
14700.00000	87.76908	-38.06171	87.76908
14750.00000	87.82916	-35.73011	87.82916
14800.00000	87.71700	-35.95927	87.71700
14850.00000	88.03129	-35.70876	88.03129
14900.00000	88.23823	-36.14347	88.23823
14950.00000	88.40895	-36.93047	88.40895
15000.00000	88.50457	-37.49652	88.50457
15050.00000	88.65044	-37.12692	88.65044
15100.00000	88.93214	-35.68736	88.93214
15150.00000	89.21171	-36.62032	89.21171
15200.00000	89.33103	-34.03057	89.33103
15250.00000	89.28661	-33.59737	89.28661
15300.00000	89.56326	-33.89072	89.56326
15350.00000	89.60828	-33.98135	89.60828
15400.00000	89.68003	-32.61350	89.68003
15450.00000	89.87138	-33.38015	89.87138
15500.00000	90.19271	-34.46980	90.19271
15550.00000	90.67612	-35.07036	90.67612
15600.00000	91.07876	-35.65071	91.07876
15650.00000	91.53284	-33.25197	91.53284
15700.00000	91.66482	-33.96950	91.66482
15750.00000	92.07593	-32.80601	92.07593
15800.00000	92.26091	-32.48323	92.26091
15850.00000	92.71162	-34.49397	92.71162
15900.00000	92.99018	-35.45979	92.99018
15950.00000	93.30707	-35.52052	93.30707
16000.00000	93.74937	-36.88617	93.74937
16050.00000	94.07277	-37.59984	94.07277
16100.00000	94.29142	-39.83704	94.29142
16150.00000	94.72786	-41.12343	94.72786
16200.00000	95.17640	-42.64752	95.17640
16250.00000	95.58252	-43.26264	95.58252
16300.00000	96.06783	-44.72752	96.06783
16350.00000	96.27049	-45.78992	96.27049
16400.00000	96.54282	-47.50051	96.54282
16450.00000	96.92912	-49.53190	96.92912
16500.00000	97.23723	-51.35437	97.23723
16550.00000	97.55893	-53.53266	97.55893
16600.00000	97.96146	-55.52375	97.96146
16650.00000	98.26323	-57.34950	98.26323
16700.00000	98.59539	-59.25482	98.59539
16750.00000	98.81722	-61.90860	98.81722
16800.00000	99.12061	-64.42530	99.12061
16850.00000	99.51865	-66.67274	99.51865
16900.00000	99.84568	-68.78275	99.84568
16950.00000	100.11049	-70.52696	100.11049
17000.00000	100.13527	-73.08282	100.13527
17050.00000	100.51389	-75.66986	100.51389
17100.00000	100.67511	-77.61814	100.67511
17150.00000	101.05590	-80.41371	101.05590
17200.00000	101.35336	-82.50644	101.35336
17250.00000	101.46469	-85.28663	101.46469
17300.00000	101.70663	-87.95210	101.70663
17350.00000	101.75751	-90.33176	101.75751
17400.00000	102.05155	-92.68986	102.05155
17450.00000	102.21570	-95.55348	102.21570
17500.00000	102.42058	-97.43829	102.42058
17550.00000	102.61761	-100.04393	102.61761
17600.00000	102.90305	-102.30781	102.90305
17650.00000	103.00486	-105.51545	103.00486
17700.00000	103.18586	-108.24784	103.18586
17750.00000	103.50186	-110.26080	103.50186
17800.00000	103.54172	-112.72716	103.54172
17850.00000	103.72883	-114.28480	103.72883
17900.00000	103.92511	-117.15823	103.92511
17950.00000	104.12154	-120.36750	104.12154
18000.00000	104.30533	-123.64865	104.30533
18050.00000	104.61484	-125.39285	104.61484
18100.00000	104.69635	-128.01396	104.69635
18150.00000	104.84098	-130.19053	104.84098
18200.00000	104.91796	-133.32826	104.91796
18250.00000	105.15020	-135.21112	105.15020
18300.00000	105.43053	-137.68442	105.43053
18350.00000	105.56657	-139.85889	105.56657
18400.00000	105.69157	-142.49954	105.69157
18450.00000	105.84320	-146.19635	105.84320
18500.00000	106.05047	-148.75262	106.05047
18550.00000	106.27874	-150.99668	106.27874
18600.00000	106.58178	-154.20661	106.58178
18650.00000	106.65018	-156.69770	106.65018
18700.00000	106.80789	-160.10475	106.80789
18750.00000	107.05256	-162.88345	107.05256
18800.00000	107.36132	-165.58359	107.36132
18850.00000	107.41506	-169.00124	107.41506
18900.00000	107.58560	-171.87583	107.58560
18950.00000	107.75969	-175.58294	107.75969
19000.00000	107.74706	-178.36032	107.74706
19050.00000	108.03441	-181.80903	108.03441
19100.00000	108.15558	-184.89593	108.15558
19150.00000	108.42600	-188.02240	108.42600
19200.00000	108.53140	-190.99318	108.53140
19250.00000	108.63548	-195.33697	108.63548
19300.00000	108.70542	-198.18449	108.70542
19350.00000	108.85946	-201.59483	108.85946
19400.00000	108.93621	-205.11204	108.93621
19450.00000	109.13780	-207.96295	109.13780
19500.00000	109.13947	-212.20961	109.13947
19550.00000	109.27412	-215.79221	109.27412
19600.00000	109.43957	-219.92724	109.43957
19650.00000	109.46071	-223.10583	109.46071
19700.00000	109.44430	-226.80692	109.44430
19750.00000	109.47749	-229.99634	109.47749
19800.00000	109.61863	-234.77566	109.61863
19850.00000	109.67665	-238.16774	109.67665
19900.00000	109.64449	-242.82126	109.64449
19950.00000	109.62548	-246.47747	109.62548
20000.00000	109.60879	-250.37883	109.60879
20050.00000	109.58508	-254.21279	109.58508
20100.00000	109.45684	-258.09456	109.45684
20150.00000	109.44920	-261.08084	109.44920
20200.00000	109.32253	-265.58858	109.32253
20250.00000	109.14287	-269.15269	109.14287
20300.00000	108.94293	-272.76095	108.94293
20350.00000	108.86936	-276.32467	108.86936
20400.00000	108.64705	-278.95399	108.64705
20450.00000	108.39009	-282.21205	108.39009
20500.00000	108.25053	-285.55233	108.25053
20550.00000	107.83892	-287.63031	107.83892
20600.00000	107.70701	-290.00887	107.70701
20650.00000	107.51006	-292.30486	107.51006
20700.00000	107.25755	-294.35337	107.25755
20750.00000	107.11430	-296.25396	107.11430
20800.00000	106.89231	-297.60075	106.89231
20850.00000	106.79837	-299.25116	106.79837
20900.00000	106.60804	-300.51514	106.60804
20950.00000	106.46854	-301.15520	106.46854
21000.00000	106.40537	-302.06815	106.40537
21050.00000	106.51476	-302.62569	106.51476
21100.00000	106.50723	-303.22723	106.50723
21150.00000	106.64237	-304.39888	106.64237
21200.00000	106.77947	-305.21691	106.77947
21250.00000	106.92714	-307.65779	106.92714
21300.00000	107.15129	-308.61431	107.15129
21350.00000	107.31568	-310.25323	107.31568
21400.00000	107.46617	-312.61318	107.46617
21450.00000	107.66371	-314.98754	107.66371
21500.00000	107.84013	-317.82174	107.84013
21550.00000	107.89823	-320.08826	107.89823
21600.00000	108.10567	-322.85244	108.10567
21650.00000	108.16213	-325.99620	108.16213
21700.00000	108.24100	-328.46960	108.24100
21750.00000	108.33446	-331.40435	108.33446
21800.00000	108.42138	-334.26066	108.42138
21850.00000	108.38604	-336.86209	108.38604
21900.00000	108.46536	-339.81967	108.46536
21950.00000	108.47831	-342.30909	108.47831
22000.00000	108.57013	-344.99724	108.57013
22050.00000	108.55191	-347.19049	108.55191
22100.00000	108.54249	-350.08493	108.54249
22150.00000	108.54154	-352.41510	108.54154
22200.00000	108.61648	-355.22696	108.61648
22250.00000	108.60201	-357.06770	108.60201
22300.00000	108.46780	-359.79706	108.46780
22350.00000	108.59915	-362.25165	108.59915
22400.00000	108.60568	-364.81861	108.60568
22450.00000	108.58131	-366.93382	108.58131
22500.00000	108.52241	-368.17341	108.52241
22550.00000	108.58546	-370.75235	108.58546
22600.00000	108.56531	-373.72700	108.56531
22650.00000	108.60598	-375.94309	108.60598
22700.00000	108.62061	-377.61482	108.62061
22750.00000	108.64298	-378.15601	108.64298
22800.00000	108.71288	-382.05288	108.71288
22850.00000	108.82083	-385.13862	108.82083
22900.00000	108.90568	-385.68953	108.90568
22950.00000	108.99544	-387.90186	108.99544
23000.00000	109.05151	-389.25951	109.05151
23050.00000	109.04037	-392.62844	109.04037
23100.00000	109.26739	-393.89728	109.26739
23150.00000	109.18234	-395.40580	109.18234
23200.00000	109.45565	-399.13409	109.45565
23250.00000	109.36603	-402.11432	109.36603
23300.00000	109.77701	-405.05501	109.77701
23350.00000	109.58834	-407.59005	109.58834
23400.00000	109.69606	-410.08568	109.69606
23450.00000	109.98940	-412.86491	109.98940
23500.00000	109.90973	-415.31161	109.90973
23550.00000	109.99157	-416.70707	109.99157
23600.00000	109.99471	-421.76726	109.99471
23650.00000	110.17932	-424.16558	110.17932
23700.00000	110.37417	-429.65678	110.37417
23750.00000	110.41396	-431.74177	110.41396
23800.00000	110.20362	-433.97024	110.20362
23850.00000	110.37172	-436.82000	110.37172
23900.00000	110.73065	-441.02732	110.73065
23950.00000	110.44646	-445.57114	110.44646
24000.00000	110.25695	-450.10917	110.25695
24050.00000	110.39179	-451.95776	110.39179
24100.00000	110.56330	-457.37221	110.56330
24150.00000	110.47211	-460.82572	110.47211
24200.00000	110.29579	-465.99966	110.29579
24250.00000	109.84682	-467.70856	109.84682
24300.00000	110.04292	-472.55290	110.04292
24350.00000	109.77139	-475.87920	109.77139
24400.00000	109.48539	-480.40609	109.48539
24450.00000	109.08655	-482.81435	109.08655
24500.00000	109.34787	-125.42656	109.34787
24550.00000	108.97981	228.61564	108.97981
24600.00000	109.19253	586.81116	109.19253
24650.00000	108.66825	941.79419	108.66825
24700.00000	108.30376	1300.76926	108.30376
24750.00000	108.17560	1655.39606	108.17560
24800.00000	107.86745	2012.49193	107.86745
24850.00000	107.41331	2371.06652	107.41331
24900.00000	107.23384	2728.61246	107.23384
24950.00000	107.09409	3084.19170	107.09409
25000.00000	106.87432	3076.35092	106.87432
25050.00000	106.69986	3076.31608	106.69986
25100.00000	105.97780	3073.12136	105.97780
25150.00000	105.99144	3072.49607	105.99144
25200.00000	105.55893	3068.11459	105.55893
25250.00000	105.60582	3067.28285	105.60582
25300.00000	105.34860	3065.18834	105.34860
25350.00000	105.04597	3058.46217	105.04597
25400.00000	104.71815	3055.00002	104.71815
25450.00000	104.59546	3053.64512	104.59546
25500.00000	104.18264	3051.85261	104.18264
25550.00000	103.86732	3048.45798	103.86732
25600.00000	103.75791	3045.80170	103.75791
25650.00000	103.42765	3044.42757	103.42765
25700.00000	103.33887	3041.14307	103.33887
25750.00000	102.85771	3038.46640	102.85771
25800.00000	102.56995	3034.87680	102.56995
25850.00000	102.28186	3033.03660	102.28186
25900.00000	102.00828	3028.92814	102.00828
25950.00000	101.56604	3030.48983	101.56604
26000.00000	101.43902	3024.86233	101.43902
26050.00000	101.10338	3023.32506	101.10338
26100.00000	100.78444	3021.05773	100.78444
26150.00000	100.38031	3018.71050	100.38031
26200.00000	100.24652	3016.56486	100.24652
26250.00000	99.97811	3013.19791	99.97811
26300.00000	99.87491	3010.71404	99.87491
26350.00000	99.04465	3010.02875	99.04465
26400.00000	98.84922	3007.80506	98.84922
26450.00000	98.88605	3004.07228	98.88605
26500.00000	98.31859	3002.48952	98.31859
26550.00000	97.99917	2997.20821	97.99917
26600.00000	97.43884	2996.00827	97.43884
26650.00000	97.35838	2998.02552	97.35838
26700.00000	97.10162	2995.08012	97.10162
26750.00000	96.56613	2992.66446	96.56613
26800.00000	96.19612	2988.57247	96.19612
26850.00000	96.35093	2988.70405	96.35093
26900.00000	95.76931	2986.88685	95.76931
26950.00000	95.77712	2984.85280	95.77712
27000.00000	95.03552	2984.58060	95.03552
27050.00000	95.07852	2983.38303	95.07852
27100.00000	94.59100	2982.95921	94.59100
27150.00000	94.08622	2980.33311	94.08622
27200.00000	94.31075	2980.60929	94.31075
27250.00000	93.55380	2980.21515	93.55380
27300.00000	93.11119	2978.85841	93.11119
27350.00000	92.91293	2978.54914	92.91293
27400.00000	92.63941	2980.29433	92.63941
27450.00000	92.45953	2978.42814	92.45953
27500.00000	92.50253	2980.94448	92.50253
27550.00000	92.36226	2978.23596	92.36226
27600.00000	92.34844	2976.37898	92.34844
27650.00000	92.00884	2978.36453	92.00884
27700.00000	91.82411	2977.42831	91.82411
27750.00000	91.96822	2976.59852	91.96822
27800.00000	91.94912	2973.57105	91.94912
27850.00000	92.47940	2978.03223	92.47940
27900.00000	91.80315	2974.78462	91.80315
27950.00000	91.53524	2974.90838	91.53524
28000.00000	91.57206	2976.01412	91.57206
28050.00000	92.16844	2976.00105	92.16844
28100.00000	91.76544	2974.88398	91.76544
28150.00000	91.91037	2975.31435	91.91037
28200.00000	92.28542	2970.69469	92.28542
28250.00000	91.92192	2969.15593	91.92192
28300.00000	91.67009	2971.54877	91.67009
28350.00000	92.12826	2969.83197	92.12826
28400.00000	92.18608	2970.84223	92.18608
28450.00000	92.90784	2967.57202	92.90784
28500.00000	92.43249	2967.65011	92.43249
28550.00000	92.65377	2969.60745	92.65377
28600.00000	92.69787	2967.40981	92.69787
28650.00000	93.00846	2964.03123	93.00846
28700.00000	93.13625	2964.13908	93.13625
28750.00000	93.75898	2963.87331	93.75898
28800.00000	93.73030	2961.52347	93.73030
28850.00000	93.15483	2958.44471	93.15483
28900.00000	93.30589	2957.63990	93.30589
28950.00000	93.49298	2956.25149	93.49298
29000.00000	93.61098	2955.57632	93.61098
29050.00000	93.51371	2956.84880	93.51371
29100.00000	93.50677	2956.58268	93.50677
29150.00000	93.58867	2954.12765	93.58867
29200.00000	93.28832	2951.90271	93.28832
29250.00000	93.74385	2951.80997	93.74385
29300.00000	93.72788	2949.82717	93.72788
29350.00000	93.94083	2948.65370	93.94083
29400.00000	94.12117	2948.99737	94.12117
29450.00000	93.92144	2946.03458	93.92144
29500.00000	94.30029	2948.81434	94.30029
29550.00000	94.11150	2942.68473	94.11150
29600.00000	94.17447	2945.17682	94.17447
29650.00000	94.45190	2943.05916	94.45190
29700.00000	94.17144	2944.21443	94.17144
29750.00000	94.44038	2946.63741	94.44038
29800.00000	94.31708	2944.02421	94.31708
29850.00000	94.58828	2942.84426	94.58828
29900.00000	94.98517	2944.62164	94.98517
29950.00000	94.18404	2943.98564	94.18404
30000.00000	94.77375	2946.02631	94.77375
30050.00000	95.10656	2943.76032	95.10656
30100.00000	94.84034	2945.77746	94.84034
30150.00000	95.40301	2944.25693	95.40301
30200.00000	95.53289	2941.42715	95.53289
30250.00000	95.45699	2943.54073	95.45699
30300.00000	95.48706	2944.70783	95.48706
30350.00000	95.85718	2945.59626	95.85718
30400.00000	96.23518	2945.02563	96.23518
30450.00000	96.12445	2944.19364	96.12445
30500.00000	96.28102	2944.49167	96.28102
30550.00000	96.64581	2946.24743	96.64581
30600.00000	96.76812	2946.74805	96.76812
30650.00000	97.08078	2947.10974	97.08078
30700.00000	97.46138	2945.95518	97.46138
30750.00000	97.44979	2948.00723	97.44979
30800.00000	97.87971	2948.20553	97.87971
30850.00000	98.30320	2948.60491	98.30320
30900.00000	98.39132	2950.76116	98.39132
30950.00000	99.07306	2949.11293	99.07306
31000.00000	99.50249	2948.01408	99.50249
31050.00000	99.99104	2948.95810	99.99104
31100.00000	100.61799	2948.77769	100.61799
31150.00000	100.72082	2947.56963	100.72082
31200.00000	101.60811	2946.73009	101.60811
31250.00000	102.01487	2945.31989	102.01487
31300.00000	102.45465	2943.48251	102.45465
31350.00000	103.15201	2941.84383	103.15201
31400.00000	103.37461	2938.57577	103.37461
31450.00000	103.94840	2936.62813	103.94840
31500.00000	104.35164	2932.62425	104.35164
31550.00000	104.75082	2929.63339	104.75082
31600.00000	105.23065	2925.76338	105.23065
31650.00000	105.56355	2922.18131	105.56355
31700.00000	105.85393	2918.98433	105.85393
31750.00000	106.15713	2916.15509	106.15713
31800.00000	106.42371	2911.41973	106.42371
31850.00000	106.64402	2906.70746	106.64402
31900.00000	106.70264	2903.48815	106.70264
31950.00000	106.99141	2898.80504	106.99141
32000.00000	107.12116	2894.94921	107.12116
32050.00000	107.18976	2891.35440	107.18976
32100.00000	107.26611	2886.28011	107.26611
32150.00000	107.28572	2883.36319	107.28572
32200.00000	107.50091	2878.60762	107.50091
32250.00000	107.42892	2873.02322	107.42892
32300.00000	107.32716	2869.90034	107.32716
32350.00000	107.37025	2866.50751	107.37025
32400.00000	107.34853	2862.03050	107.34853
32450.00000	107.09955	2858.39493	107.09955
32500.00000	107.20230	2855.23769	107.20230
32550.00000	107.10402	2850.09934	107.10402
32600.00000	106.96144	2847.09640	106.96144
32650.00000	106.84209	2843.57706	106.84209
32700.00000	106.54061	2839.28898	106.54061
32750.00000	106.43346	2836.13050	106.43346
32800.00000	106.49788	2833.53611	106.49788
32850.00000	106.44415	2829.45320	106.44415
32900.00000	106.11990	2825.96902	106.11990
32950.00000	105.93425	2822.35551	105.93425
33000.00000	105.73461	2820.64010	105.73461
33050.00000	105.43122	2816.73966	105.43122
33100.00000	105.46899	2813.96487	105.46899
33150.00000	105.30160	2811.29890	105.30160
33200.00000	105.29648	2810.84652	105.29648
33250.00000	105.08888	2808.45727	105.08888
33300.00000	104.99433	2805.01611	104.99433
33350.00000	104.92627	2802.99859	104.92627
33400.00000	104.83858	2800.82267	104.83858
33450.00000	104.87472	2797.68394	104.87472
33500.00000	104.84657	2797.65865	104.84657
33550.00000	104.77451	2794.24928	104.77451
33600.00000	104.98462	2791.06369	104.98462
33650.00000	104.81658	2788.87643	104.81658
33700.00000	105.00713	2786.14246	105.00713
33750.00000	104.97881	2782.65715	104.97881
33800.00000	104.93364	2780.06087	104.93364
33850.00000	104.66364	2778.24328	104.66364
33900.00000	105.06226	2774.49850	105.06226
33950.00000	105.11026	2772.24287	105.11026
34000.00000	105.07637	2769.32797	105.07637
34050.00000	105.07033	2766.35397	105.07033
34100.00000	104.86670	2763.58063	104.86670
34150.00000	104.99817	2761.11318	104.99817
34200.00000	105.10782	2759.39261	105.10782
34250.00000	105.15847	2754.24241	105.15847
34300.00000	105.04242	2752.42796	105.04242
34350.00000	105.37673	2749.63583	105.37673
34400.00000	105.12339	2746.84863	105.12339
34450.00000	105.15104	2740.20877	105.15104
34500.00000	104.94095	2739.10560	104.94095
34550.00000	105.18485	2735.26132	105.18485
34600.00000	104.79853	2730.58143	104.79853
34650.00000	104.81446	2731.89474	104.81446
34700.00000	104.66261	2728.88962	104.66261
34750.00000	104.64215	2721.99589	104.64215
34800.00000	104.73028	2722.93370	104.73028
34850.00000	104.74704	2722.97469	104.74704
34900.00000	105.03004	2717.37054	105.03004
34950.00000	104.62605	2716.28730	104.62605
35000.00000	104.75614	2712.91475	104.75614
35050.00000	104.85118	2710.53978	104.85118
35100.00000	104.89173	2706.80202	104.89173
35150.00000	104.32887	2707.97127	104.32887
35200.00000	104.64055	2703.81790	104.64055
35250.00000	104.60763	2699.38982	104.60763
35300.00000	104.70109	2697.18499	104.70109
35350.00000	104.41656	2696.30270	104.41656
35400.00000	104.48453	2694.58148	104.48453
35450.00000	104.46337	2691.51607	104.46337
35500.00000	103.87650	2690.97272	103.87650
35550.00000	104.40669	2690.41557	104.40669
35600.00000	104.14391	2686.57611	104.14391
35650.00000	104.22937	2686.47873	104.22937
35700.00000	104.46248	2685.92218	104.46248
35750.00000	104.44075	2683.21210	104.44075
35800.00000	104.33891	2682.33186	104.33891
35850.00000	104.14300	2680.81199	104.14300
35900.00000	104.46204	2679.89916	104.46204
35950.00000	104.78894	2678.69284	104.78894
36000.00000	104.44544	2678.03890	104.44544
36050.00000	104.72751	2678.52491	104.72751
36100.00000	104.90136	2676.08103	104.90136
36150.00000	104.79857	2672.15134	104.79857
36200.00000	104.83666	2674.13566	104.83666
36250.00000	104.77067	2673.57959	104.77067
36300.00000	104.99732	2672.85424	104.99732
36350.00000	105.06277	2670.01276	105.06277
36400.00000	105.29887	2670.40862	105.29887
36450.00000	105.31396	2669.83819	105.31396
36500.00000	105.76732	2669.38460	105.76732
36550.00000	105.72225	2667.41412	105.72225
36600.00000	106.07323	2668.28572	106.07323
36650.00000	106.62026	2667.21138	106.62026
36700.00000	106.88293	2663.89689	106.88293
36750.00000	106.87513	2662.39235	106.87513
36800.00000	106.89953	2662.30915	106.89953
36850.00000	107.01324	2661.90750	107.01324
36900.00000	107.56910	2660.44208	107.56910
36950.00000	107.59166	2658.50437	107.59166
37000.00000	107.64264	2658.92280	107.64264
37050.00000	107.91475	2657.32168	107.91475
37100.00000	108.24961	2653.92572	108.24961
37150.00000	108.41804	2652.73993	108.41804
37200.00000	108.88158	2653.40737	108.88158
37250.00000	108.68026	2651.96363	108.68026
37300.00000	108.87226	2649.93505	108.87226
37350.00000	109.29402	2649.72680	109.29402
37400.00000	109.25979	2649.12088	109.25979
37450.00000	109.52919	2647.90417	109.52919
37500.00000	110.16307	2644.80794	110.16307
37550.00000	109.91120	2644.75903	109.91120
37600.00000	110.28629	2644.09445	110.28629
37650.00000	110.75735	2642.31769	110.75735
37700.00000	111.05665	2638.55901	111.05665
37750.00000	111.08638	2638.35311	111.08638
37800.00000	111.30536	2636.40952	111.30536
37850.00000	111.72065	2633.05012	111.72065
37900.00000	111.95184	2631.52830	111.95184
37950.00000	112.13168	2630.67638	112.13168
38000.00000	112.36519	2628.91130	112.36519
38050.00000	112.78778	2626.46416	112.78778
38100.00000	113.18544	2623.41624	113.18544
38150.00000	113.40844	2620.12130	113.40844
38200.00000	113.67053	2616.00640	113.67053
38250.00000	113.93654	2614.18565	113.93654
38300.00000	114.33087	2610.33873	114.33087
38350.00000	114.50923	2607.18377	114.50923
38400.00000	114.71097	2603.68309	114.71097
38450.00000	114.99974	2599.12832	114.99974
38500.00000	115.33627	2595.11590	115.33627
38550.00000	115.68991	2591.10474	115.68991
38600.00000	115.85779	2586.35327	115.85779
38650.00000	116.03634	2581.63194	116.03634
38700.00000	116.22521	2577.00224	116.22521
38750.00000	116.42111	2572.18578	116.42111
38800.00000	116.55741	2566.80444	116.55741
38850.00000	116.65515	2561.40931	116.65515
38900.00000	116.75566	2556.45432	116.75566
38950.00000	116.77064	2550.98522	116.77064
39000.00000	116.88556	2545.17140	116.88556
39050.00000	116.90851	2539.94827	116.90851
39100.00000	116.75199	2534.11018	116.75199
39150.00000	116.66767	2528.45651	116.66767
39200.00000	116.61847	2523.51879	116.61847
39250.00000	116.52784	2517.77723	116.52784
39300.00000	116.42058	2512.30483	116.42058
39350.00000	116.17951	2507.18628	116.17951
39400.00000	116.02656	2501.71596	116.02656
39450.00000	115.75641	2496.93261	115.75641
39500.00000	115.64888	2491.98937	115.64888
39550.00000	115.32566	2487.08787	115.32566
39600.00000	115.01307	2482.00390	115.01307
39650.00000	114.83593	2478.21964	114.83593
39700.00000	114.48830	2473.65361	114.48830
39750.00000	114.27997	2469.05481	114.27997
39800.00000	114.08051	2464.59193	114.08051
39850.00000	113.76504	2459.61976	113.76504
39900.00000	113.52309	2455.75861	113.52309
39950.00000	113.20655	2451.94329	113.20655
40000.00000	112.74164	2449.41539	112.74164
40050.00000	112.63154	2444.45590	112.63154
40100.00000	112.32205	2440.40804	112.32205
40150.00000	111.98639	2437.27268	111.98639
40200.00000	111.66324	2433.48710	111.66324
40250.00000	111.38808	2429.77205	111.38808
40300.00000	111.20159	2427.45098	111.20159
40350.00000	110.72345	2424.20002	110.72345
40400.00000	110.44898	2421.28600	110.44898
40450.00000	110.16544	2418.14625	110.16544
40500.00000	110.01016	2416.17578	110.01016
40550.00000	109.72476	2412.82260	109.72476
40600.00000	109.48228	2410.84481	109.48228
40650.00000	109.20902	2409.29244	109.20902
40700.00000	108.82186	2407.46072	108.82186
40750.00000	108.75062	2405.21747	108.75062
40800.00000	108.54308	2403.23878	108.54308
40850.00000	108.30213	2401.73667	108.30213
40900.00000	108.07923	2399.77306	108.07923
40950.00000	107.80100	2398.67667	107.80100
41000.00000	107.46465	2397.44453	107.46465
41050.00000	107.52123	2395.81807	107.52123
41100.00000	107.44579	2394.39112	107.44579
41150.00000	107.54414	2395.04530	107.54414
41200.00000	107.35545	2392.36656	107.35545
41250.00000	107.12380	2389.11168	107.12380
41300.00000	106.94101	2389.07810	106.94101
41350.00000	106.97282	2389.59883	106.97282
41400.00000	106.87364	2384.59270	106.87364
41450.00000	106.72542	2385.96874	106.72542
41500.00000	106.65881	2384.15304	106.65881
41550.00000	106.49677	2386.45237	106.49677
41600.00000	106.14506	2384.13592	106.14506
41650.00000	106.38940	2382.95666	106.38940
41700.00000	106.31723	2381.05669	106.31723
41750.00000	106.08519	2386.63068	106.08519
41800.00000	105.28170	2380.98472	105.28170
41850.00000	105.21651	2382.83314	105.21651
41900.00000	104.82138	2383.87409	104.82138
41950.00000	105.94684	2386.31019	105.94684
42000.00000	104.98162	2381.32777	104.98162
42050.00000	103.86253	2382.71062	103.86253
42100.00000	104.41816	2382.78807	104.41816
42150.00000	103.92241	2380.85297	103.92241
42200.00000	103.78283	2386.44193	103.78283
42250.00000	103.72556	2384.12876	103.72556
42300.00000	102.44715	2384.46380	102.44715
42350.00000	102.84811	2386.98705	102.84811
42400.00000	102.72949	2388.80705	102.72949
42450.00000	103.15208	2386.06818	103.15208
42500.00000	102.55094	2387.26247	102.55094
42550.00000	102.95050	2403.12046	102.95050
42600.00000	102.10864	2395.81101	102.10864
42650.00000	101.91497	2398.15858	101.91497
42700.00000	101.88527	2399.13020	101.88527
42750.00000	102.14064	2400.50788	102.14064
42800.00000	101.83558	2396.51168	101.83558
42850.00000	101.19559	2400.05088	101.19559
42900.00000	103.44986	2401.12749	103.44986
42950.00000	102.26158	2404.05518	102.26158
43000.00000	102.42526	2390.00086	102.42526
43050.00000	102.03203	2391.35130	102.03203
43100.00000	102.32133	2396.25177	102.32133
43150.00000	101.67364	2396.77144	101.67364
43200.00000	102.56392	2394.52999	102.56392
43250.00000	102.33130	2392.18025	102.33130
43300.00000	102.50966	2390.22990	102.50966
43350.00000	103.54421	2387.35865	103.54421
43400.00000	103.12783	2383.48509	103.12783
43450.00000	103.96624	2388.06422	103.96624
43500.00000	102.54836	2377.29812	102.54836
43550.00000	103.81868	2380.04389	103.81868
43600.00000	102.77896	2375.45637	102.77896
43650.00000	104.11817	2366.24845	104.11817
43700.00000	103.22513	2362.44114	103.22513
43750.00000	103.29779	2362.85493	103.29779
43800.00000	103.06356	2353.48657	103.06356
43850.00000	103.91109	2349.10895	103.91109
43900.00000	103.66084	2348.24871	103.66084
43950.00000	103.55213	2343.29267	103.55213
44000.00000	103.14268	2338.58522	103.14268
44050.00000	103.05793	2331.89356	103.05793
44100.00000	103.25622	2320.22179	103.25622
44150.00000	103.53185	2323.38406	103.53185
44200.00000	102.98747	2318.53327	102.98747
44250.00000	103.30251	2313.98848	103.30251
44300.00000	102.92485	2305.99930	102.92485
44350.00000	101.63480	2300.16655	101.63480
44400.00000	101.65037	2294.59442	101.65037
44450.00000	102.20567	2293.39938	102.20567
44500.00000	101.98927	2291.25531	101.98927
44550.00000	102.93622	2280.83406	102.93622
44600.00000	101.93717	2283.79074	101.93717
44650.00000	100.94044	2271.43266	100.94044
44700.00000	101.40417	2269.83472	101.40417
44750.00000	100.85629	2271.06461	100.85629
44800.00000	100.97161	2258.87457	100.97161
44850.00000	100.58251	2254.79093	100.58251
44900.00000	99.85274	2249.83883	99.85274
44950.00000	100.28195	2248.13600	100.28195
45000.00000	100.02469	2234.32742	100.02469
45050.00000	98.37086	2243.96046	98.37086
45100.00000	99.02600	2235.31297	99.02600
45150.00000	99.46625	2226.74222	99.46625
45200.00000	98.36401	2229.04456	98.36401
45250.00000	98.41056	2219.84251	98.41056
45300.00000	97.79795	2210.74576	97.79795
45350.00000	97.10565	2201.33240	97.10565
45400.00000	97.57792	2207.17004	97.57792
45450.00000	97.69648	2197.49969	97.69648
45500.00000	95.89563	2191.63751	95.89563
45550.00000	95.76891	2191.38672	95.76891
45600.00000	96.06246	2179.41365	96.06246
45650.00000	94.75999	2177.22871	94.75999
45700.00000	95.46584	2175.16670	95.46584
45750.00000	95.29718	2181.97954	95.29718
45800.00000	95.36531	2166.66817	95.36531
45850.00000	93.98946	2163.67829	93.98946
45900.00000	94.36332	2163.41432	94.36332
45950.00000	92.93709	2150.15330	92.93709
46000.00000	90.94676	2143.32074	90.94676
46050.00000	91.31650	2134.74426	91.31650
46100.00000	91.74149	2141.30075	91.74149
46150.00000	89.44361	2137.18776	89.44361
46200.00000	88.74915	2131.89513	88.74915
46250.00000	88.79596	2123.67541	88.79596
46300.00000	87.72488	2132.67499	87.72488
46350.00000	88.67325	2135.57203	88.67325
46400.00000	86.82299	2121.91703	86.82299
46450.00000	85.83836	2122.10901	85.83836
46500.00000	88.21993	2121.52948	88.21993
46550.00000	85.75329	2119.85219	85.75329
46600.00000	85.16932	2130.25657	85.16932
46650.00000	85.34425	2103.65036	85.34425
46700.00000	85.10029	2109.58774	85.10029
46750.00000	84.56131	2117.39688	84.56131
46800.00000	81.53974	2113.48900	81.53974
46850.00000	82.67765	1761.09693	82.67765
46900.00000	81.47865	1752.57401	81.47865
46950.00000	83.39267	1758.30433	83.39267
47000.00000	81.22471	1770.71307	81.22471
47050.00000	85.78030	1760.62055	85.78030
47100.00000	84.44213	1757.11000	84.44213
47150.00000	84.13010	1763.27540	84.13010
47200.00000	82.59533	1763.80974	82.59533
47250.00000	84.65041	1747.98523	84.65041
47300.00000	83.45238	1742.05863	83.45238
47350.00000	84.65057	1395.16495	84.65057
47400.00000	84.10112	1390.32829	84.10112
47450.00000	83.92127	1392.36264	83.92127
47500.00000	83.34679	1368.97375	83.34679
47550.00000	82.51662	1026.25004	82.51662
47600.00000	82.58025	1028.17760	82.58025
47650.00000	85.62041	1017.50512	85.62041
47700.00000	81.99446	1008.15269	81.99446
47750.00000	84.44406	1023.36943	84.44406
47800.00000	83.47223	999.68413	83.47223
47850.00000	84.38089	647.41993	84.38089
47900.00000	84.27142	300.89426	84.27142
47950.00000	82.18222	288.07912	82.18222
48000.00000	83.56435	301.83451	83.56435
48050.00000	85.65123	285.96680	85.65123
48100.00000	84.16458	279.66361	84.16458
48150.00000	85.14094	-89.38627	85.14094
48200.00000	84.62226	-86.25469	84.62226
48250.00000	84.94568	-107.64339	84.94568
48300.00000	85.40899	-95.60923	85.40899
48350.00000	84.44843	-108.24588	84.44843
48400.00000	85.28767	-442.01124	85.28767
48450.00000	85.56803	-467.75229	85.56803
48500.00000	83.26999	-474.71775	83.26999
48550.00000	83.31932	-467.81479	83.31932
48600.00000	85.61132	-832.49401	85.61132
48650.00000	83.33718	-831.22854	83.33718
48700.00000	85.13155	-834.99359	85.13155
48750.00000	86.05624	-1196.62037	86.05624
48800.00000	85.63504	-1209.69414	85.63504
48850.00000	85.99214	-1205.35140	85.99214
48900.00000	84.30483	-1551.38042	84.30483
48950.00000	86.12096	-1584.97005	86.12096
49000.00000	85.45667	-1584.47958	85.45667
49050.00000	84.34462	-1581.21056	84.34462
49100.00000	85.06917	-1949.59247	85.06917
49150.00000	86.59613	-2311.17397	86.59613
49200.00000	84.27022	-2341.21037	84.27022
49250.00000	84.52670	-2680.96151	84.52670
49300.00000	86.60461	-2324.52162	86.60461
49350.00000	82.64506	-2304.03838	82.64506
49400.00000	85.11731	-1977.68060	85.11731
49450.00000	85.31579	-1639.93366	85.31579
49500.00000	87.03137	-1277.10302	87.03137
49550.00000	83.89156	-946.25144	83.89156
49600.00000	82.02670	-921.54710	82.02670
49650.00000	83.66704	-918.15767	83.66704
49700.00000	80.45862	-600.46818	80.45862
49750.00000	85.89545	-606.76671	85.89545
49800.00000	81.59330	-643.12344	81.59330
49850.00000	81.39356	-585.13036	81.39356
49900.00000	83.99061	-216.46005	83.99061
49950.00000	81.54766	93.51224	81.54766
