---ACOUSTIC CALIBRATION---
Filename: C:\Data\AZH DATA\AZH61\RightPrimary.calib
Date: 8/27/2019 3:32:06 PM
Format: 4
Probe Tube Correction File: C:\Data\Probe Tube Calibrations\50_ProbeTube.calib
Experiment VIs: 850
EPL_CFTS.exe V12.0.1 (2012)
DAQmx V9.6

Attenuation (dB): 40.000000
Min Freq (Hz): 50.000000
Max Freq (Hz): 49950.000000
Freq Step (Hz): 50.000000
Sample Rate (Hz): 100000.000000
[Smoothing]
Method=None
MA.Iterations=0
MA.Length=0
Loess.Length=0
Loess.Type=Linear
Loess.Robust=FALSE


Freq(Hz)	Mag(dB)	Phase(deg)	Unsmoothed(dB)

50.00000	99.30287	417.84491	99.30287
100.00000	70.89334	477.17256	70.89334
150.00000	80.27384	510.46336	80.27384
200.00000	81.70545	471.42431	81.70545
250.00000	90.66128	448.29928	90.66128
300.00000	89.24793	394.35871	89.24793
350.00000	85.22066	373.70199	85.22066
400.00000	86.55665	361.55340	86.55665
450.00000	87.24149	350.07703	87.24149
500.00000	89.59000	362.09227	89.59000
550.00000	92.76256	359.82186	92.76256
600.00000	95.55423	351.20747	95.55423
650.00000	98.03581	342.77061	98.03581
700.00000	100.56137	327.68999	100.56137
750.00000	102.45623	310.75060	102.45623
800.00000	103.28733	287.27205	103.28733
850.00000	102.75339	271.50077	102.75339
900.00000	101.19612	255.58569	101.19612
950.00000	99.48443	253.15418	99.48443
1000.00000	98.03867	254.10552	98.03867
1050.00000	96.09356	268.68693	96.09356
1100.00000	97.83033	290.03016	97.83033
1150.00000	100.64839	295.14147	100.64839
1200.00000	103.35852	294.14160	103.35852
1250.00000	105.05239	286.42716	105.05239
1300.00000	106.75909	281.35360	106.75909
1350.00000	108.05321	272.10119	108.05321
1400.00000	108.98952	265.49578	108.98952
1450.00000	110.03862	258.63826	110.03862
1500.00000	111.20139	251.17110	111.20139
1550.00000	112.01577	242.94494	112.01577
1600.00000	113.41129	233.44720	113.41129
1650.00000	114.42975	216.66477	114.42975
1700.00000	113.22337	206.80952	113.22337
1750.00000	113.00456	201.16878	113.00456
1800.00000	112.76918	196.49611	112.76918
1850.00000	112.96082	195.44717	112.96082
1900.00000	114.10127	191.11087	114.10127
1950.00000	114.78627	177.78625	114.78627
2000.00000	113.82047	165.69159	113.82047
2050.00000	112.50878	169.57839	112.50878
2100.00000	114.27153	169.56408	114.27153
2150.00000	114.96980	158.66302	114.96980
2200.00000	114.86229	148.61934	114.86229
2250.00000	114.27581	141.54876	114.27581
2300.00000	114.37538	135.96871	114.37538
2350.00000	114.09792	129.60933	114.09792
2400.00000	113.81820	124.07726	113.81820
2450.00000	113.52231	117.50036	113.52231
2500.00000	113.12252	112.54041	113.12252
2550.00000	112.66955	107.21535	112.66955
2600.00000	112.11337	102.90366	112.11337
2650.00000	111.62435	99.17938	111.62435
2700.00000	111.09333	95.37413	111.09333
2750.00000	110.52044	92.41626	110.52044
2800.00000	109.92276	89.81274	109.92276
2850.00000	109.32482	88.18299	109.32482
2900.00000	108.69149	86.09847	108.69149
2950.00000	107.97629	85.10323	107.97629
3000.00000	107.28569	84.12182	107.28569
3050.00000	106.36238	84.27145	106.36238
3100.00000	105.49532	86.50312	105.49532
3150.00000	104.25790	89.98103	104.25790
3200.00000	103.36222	98.77313	103.36222
3250.00000	103.07909	110.98830	103.07909
3300.00000	103.35345	123.16170	103.35345
3350.00000	104.36468	136.27473	104.36468
3400.00000	106.31416	147.34995	106.31416
3450.00000	108.68095	151.77490	108.68095
3500.00000	111.01383	151.04949	111.01383
3550.00000	112.87620	146.68811	112.87620
3600.00000	114.51688	142.21528	114.51688
3650.00000	115.88780	136.52430	115.88780
3700.00000	117.14360	130.66888	117.14360
3750.00000	118.33238	124.15408	118.33238
3800.00000	119.37715	116.74512	119.37715
3850.00000	120.21029	109.38213	120.21029
3900.00000	120.99624	102.54338	120.99624
3950.00000	121.77923	95.31499	121.77923
4000.00000	122.49834	87.95353	122.49834
4050.00000	123.19089	80.65490	123.19089
4100.00000	123.91667	73.07778	123.91667
4150.00000	124.81242	64.57807	124.81242
4200.00000	125.40037	54.52609	125.40037
4250.00000	125.91852	43.67350	125.91852
4300.00000	126.20924	32.14444	126.20924
4350.00000	126.21598	20.53185	126.21598
4400.00000	126.01354	 9.83513	126.01354
4450.00000	125.68997	-0.04209	125.68997
4500.00000	125.29815	-9.05678	125.29815
4550.00000	124.87251	-17.53624	124.87251
4600.00000	124.40359	-25.46456	124.40359
4650.00000	123.98197	-33.01659	123.98197
4700.00000	123.51673	-40.99203	123.51673
4750.00000	122.93311	-49.18389	122.93311
4800.00000	122.16685	-57.49033	122.16685
4850.00000	121.13425	-65.04201	121.13425
4900.00000	119.88825	-70.82161	119.88825
4950.00000	118.56306	-74.11084	118.56306
5000.00000	117.33964	-75.01966	117.33964
5050.00000	116.27918	-74.94885	116.27918
5100.00000	115.14251	-71.75785	115.14251
5150.00000	115.01654	-65.93833	115.01654
5200.00000	114.45502	-62.15408	114.45502
5250.00000	115.80474	-51.94857	115.80474
5300.00000	117.76525	-60.57264	117.76525
5350.00000	117.75898	-71.97365	117.75898
5400.00000	117.20477	-78.43723	117.20477
5450.00000	116.70777	-82.06982	116.70777
5500.00000	116.33240	-84.92940	116.33240
5550.00000	116.04849	-87.27202	116.04849
5600.00000	115.81699	-89.52792	115.81699
5650.00000	115.63982	-91.72605	115.63982
5700.00000	115.47001	-94.12964	115.47001
5750.00000	115.34807	-96.31059	115.34807
5800.00000	115.20885	-98.64497	115.20885
5850.00000	115.08433	-100.92830	115.08433
5900.00000	114.97392	-103.13161	114.97392
5950.00000	114.89369	-105.26315	114.89369
6000.00000	114.83701	-107.31612	114.83701
6050.00000	114.80068	-109.50492	114.80068
6100.00000	114.80572	-111.91793	114.80572
6150.00000	114.78897	-114.50509	114.78897
6200.00000	114.76425	-117.22135	114.76425
6250.00000	114.73194	-120.07389	114.73194
6300.00000	114.70213	-122.94987	114.70213
6350.00000	114.64641	-125.81286	114.64641
6400.00000	114.57474	-128.61021	114.57474
6450.00000	114.53753	-131.48684	114.53753
6500.00000	114.45630	-134.27211	114.45630
6550.00000	114.38993	-136.99535	114.38993
6600.00000	114.33616	-139.68954	114.33616
6650.00000	114.29585	-142.40895	114.29585
6700.00000	114.25515	-145.24897	114.25515
6750.00000	114.22839	-148.00075	114.22839
6800.00000	114.20848	-150.76333	114.20848
6850.00000	114.19652	-153.57049	114.19652
6900.00000	114.18616	-156.29080	114.18616
6950.00000	114.16469	-159.20789	114.16469
7000.00000	114.18473	-162.19712	114.18473
7050.00000	114.17725	-165.33662	114.17725
7100.00000	114.19093	-168.58249	114.19093
7150.00000	114.20315	-171.79592	114.20315
7200.00000	114.19514	-175.14752	114.19514
7250.00000	114.16465	-178.77258	114.16465
7300.00000	114.18667	-182.41831	114.18667
7350.00000	114.12439	-186.04422	114.12439
7400.00000	114.10351	-189.99483	114.10351
7450.00000	114.04603	-193.95935	114.04603
7500.00000	113.97615	-197.96785	113.97615
7550.00000	113.89674	-202.07760	113.89674
7600.00000	113.76656	-206.24248	113.76656
7650.00000	113.61133	-210.39383	113.61133
7700.00000	113.48108	-214.54021	113.48108
7750.00000	113.26659	-218.65092	113.26659
7800.00000	113.06319	-222.71755	113.06319
7850.00000	112.83690	-226.79199	112.83690
7900.00000	112.57689	-230.63787	112.57689
7950.00000	112.29898	-234.57650	112.29898
8000.00000	112.00760	-238.31791	112.00760
8050.00000	111.70660	-242.20768	111.70660
8100.00000	111.39339	-245.40144	111.39339
8150.00000	110.99522	-248.53596	110.99522
8200.00000	110.63154	-251.34857	110.63154
8250.00000	110.24593	-254.41344	110.24593
8300.00000	109.86995	-257.26054	109.86995
8350.00000	109.45804	-259.90806	109.45804
8400.00000	109.04810	-262.98997	109.04810
8450.00000	108.57929	-265.65054	108.57929
8500.00000	108.17266	-268.49193	108.17266
8550.00000	107.83077	-270.86087	107.83077
8600.00000	107.48339	-273.56721	107.48339
8650.00000	107.14516	-275.73239	107.14516
8700.00000	106.89735	-278.36022	106.89735
8750.00000	106.55427	-279.28588	106.55427
8800.00000	106.27474	-281.16546	106.27474
8850.00000	105.95227	-282.44161	105.95227
8900.00000	105.65864	-283.25787	105.65864
8950.00000	105.32998	-284.58778	105.32998
9000.00000	104.90200	-285.80757	104.90200
9050.00000	104.54637	-287.64214	104.54637
9100.00000	104.13451	-289.38100	104.13451
9150.00000	103.81619	-291.35488	103.81619
9200.00000	103.56544	-293.46154	103.56544
9250.00000	103.29989	-295.82143	103.29989
9300.00000	103.15401	-298.17497	103.15401
9350.00000	103.09059	-299.84938	103.09059
9400.00000	102.93930	-300.76542	102.93930
9450.00000	102.89341	-301.35795	102.89341
9500.00000	102.83319	-300.93211	102.83319
9550.00000	102.80930	-300.53409	102.80930
9600.00000	102.78691	-301.40372	102.78691
9650.00000	102.56898	-302.59158	102.56898
9700.00000	102.31098	-303.21609	102.31098
9750.00000	102.13440	-305.33665	102.13440
9800.00000	101.89051	-306.91150	101.89051
9850.00000	101.75970	-308.74605	101.75970
9900.00000	101.55535	-311.05804	101.55535
9950.00000	101.53109	-312.59512	101.53109
10000.00000	101.52684	-314.55122	101.52684
10050.00000	101.49694	-315.75314	101.49694
10100.00000	101.43124	-316.62838	101.43124
10150.00000	101.24067	-318.25085	101.24067
10200.00000	101.08839	-319.37894	101.08839
10250.00000	100.85604	-321.00816	100.85604
10300.00000	100.73881	-323.00870	100.73881
10350.00000	100.51415	-325.07970	100.51415
10400.00000	100.31167	-327.77180	100.31167
10450.00000	100.30002	-330.54846	100.30002
10500.00000	100.32574	-332.92144	100.32574
10550.00000	100.33555	-335.28901	100.33555
10600.00000	100.31320	-337.04910	100.31320
10650.00000	100.24839	-338.24418	100.24839
10700.00000	100.16863	-340.56704	100.16863
10750.00000	100.08764	-342.37306	100.08764
10800.00000	99.88660	-344.11947	99.88660
10850.00000	99.70424	-347.11324	99.70424
10900.00000	99.54099	-349.30697	99.54099
10950.00000	99.39548	-351.44714	99.39548
11000.00000	99.26957	-353.86065	99.26957
11050.00000	99.00280	-356.02034	99.00280
11100.00000	98.83668	-358.35400	98.83668
11150.00000	98.55171	-360.07579	98.55171
11200.00000	98.39231	-361.71331	98.39231
11250.00000	98.07106	-363.88888	98.07106
11300.00000	97.74315	-365.80465	97.74315
11350.00000	97.46579	-367.37043	97.46579
11400.00000	97.11806	-369.23028	97.11806
11450.00000	96.91772	-371.47865	96.91772
11500.00000	96.82111	-372.30238	96.82111
11550.00000	96.52381	-373.53991	96.52381
11600.00000	96.40884	-375.53817	96.40884
11650.00000	96.16928	-375.72049	96.16928
11700.00000	96.02916	-376.73238	96.02916
11750.00000	95.90077	-377.75764	95.90077
11800.00000	95.75249	-379.36070	95.75249
11850.00000	95.68583	-379.65635	95.68583
11900.00000	95.41955	-381.21041	95.41955
11950.00000	95.31804	-382.07303	95.31804
12000.00000	95.13860	-382.65762	95.13860
12050.00000	94.92660	-383.90283	94.92660
12100.00000	94.81816	-386.28817	94.81816
12150.00000	94.69213	-388.10564	94.69213
12200.00000	94.64580	-390.27690	94.64580
12250.00000	94.59553	-391.63255	94.59553
12300.00000	95.70382	-393.14658	95.70382
12350.00000	94.43446	-394.53299	94.43446
12400.00000	94.24885	-395.13887	94.24885
12450.00000	94.02658	-396.69768	94.02658
12500.00000	93.76809	-398.84975	93.76809
12550.00000	93.58986	-401.21838	93.58986
12600.00000	93.31859	-403.88946	93.31859
12650.00000	93.34363	-405.73817	93.34363
12700.00000	93.05723	-407.50587	93.05723
12750.00000	92.77510	-409.27873	92.77510
12800.00000	92.46013	-410.33079	92.46013
12850.00000	91.89050	-411.60748	91.89050
12900.00000	91.63957	-413.96454	91.63957
12950.00000	91.34527	-415.09952	91.34527
13000.00000	90.98815	-416.60864	90.98815
13050.00000	90.78444	-416.46178	90.78444
13100.00000	90.36771	-417.43483	90.36771
13150.00000	90.06982	-419.16761	90.06982
13200.00000	89.74302	-418.49284	89.74302
13250.00000	89.41016	-418.59115	89.41016
13300.00000	88.98500	-416.56173	88.98500
13350.00000	88.65325	-417.52801	88.65325
13400.00000	88.62367	-417.71532	88.62367
13450.00000	88.13363	-416.01693	88.13363
13500.00000	87.98077	-414.13373	87.98077
13550.00000	87.61617	-414.45927	87.61617
13600.00000	87.42955	-412.54876	87.42955
13650.00000	87.20876	-411.70620	87.20876
13700.00000	86.84606	-411.44716	86.84606
13750.00000	86.64339	-411.10015	86.64339
13800.00000	86.48819	-412.18037	86.48819
13850.00000	86.42466	-412.13438	86.42466
13900.00000	86.35926	-410.44672	86.35926
13950.00000	86.46200	-407.99062	86.46200
14000.00000	86.56511	-405.18964	86.56511
14050.00000	86.32902	-404.24509	86.32902
14100.00000	86.14852	-402.74635	86.14852
14150.00000	86.21317	-402.63216	86.21317
14200.00000	86.37496	-401.48827	86.37496
14250.00000	86.86017	-398.39220	86.86017
14300.00000	86.86650	-396.50310	86.86650
14350.00000	86.95801	-393.85736	86.95801
14400.00000	86.74138	-392.54055	86.74138
14450.00000	86.82074	-391.30869	86.82074
14500.00000	86.84699	-391.40702	86.84699
14550.00000	87.07255	-390.45467	87.07255
14600.00000	87.38674	-390.52274	87.38674
14650.00000	87.94803	-387.74268	87.94803
14700.00000	88.00217	-390.28465	88.00217
14750.00000	88.53692	-388.62241	88.53692
14800.00000	88.68314	-386.73528	88.68314
14850.00000	88.97443	-386.07719	88.97443
14900.00000	89.31862	-386.87005	89.31862
14950.00000	89.74346	-387.95684	89.74346
15000.00000	90.32223	-387.60690	90.32223
15050.00000	90.54241	-385.58675	90.54241
15100.00000	90.82097	-383.73216	90.82097
15150.00000	91.16734	-385.10592	91.16734
15200.00000	91.30224	-384.65652	91.30224
15250.00000	91.41632	-386.58472	91.41632
15300.00000	92.13700	-387.52109	92.13700
15350.00000	92.68097	-389.01774	92.68097
15400.00000	93.04503	-387.50200	93.04503
15450.00000	93.38628	-388.20830	93.38628
15500.00000	93.70908	-388.88488	93.70908
15550.00000	94.07877	-390.27177	94.07877
15600.00000	94.56227	-392.37972	94.56227
15650.00000	95.12113	-392.01740	95.12113
15700.00000	95.41360	-394.00328	95.41360
15750.00000	96.01603	-395.11589	96.01603
15800.00000	96.50672	-395.90867	96.50672
15850.00000	96.75169	-397.15873	96.75169
15900.00000	96.96908	-400.17710	96.96908
15950.00000	97.50992	-402.02181	97.50992
16000.00000	98.01325	-403.97393	98.01325
16050.00000	98.56375	-406.23631	98.56375
16100.00000	98.84688	-408.50539	98.84688
16150.00000	99.11199	-410.63206	99.11199
16200.00000	99.45876	-414.00374	99.45876
16250.00000	99.85215	-416.43870	99.85215
16300.00000	100.37876	-419.61757	100.37876
16350.00000	100.73243	-422.37692	100.73243
16400.00000	101.04343	-424.86665	101.04343
16450.00000	101.32447	-427.73692	101.32447
16500.00000	101.58212	-431.25123	101.58212
16550.00000	101.86772	-434.86604	101.86772
16600.00000	102.10312	-437.90984	102.10312
16650.00000	102.32157	-440.95337	102.32157
16700.00000	102.58526	-443.79158	102.58526
16750.00000	102.67137	-447.41259	102.67137
16800.00000	102.83631	-450.83688	102.83631
16850.00000	103.12281	-453.74734	103.12281
16900.00000	103.30380	-457.19307	103.30380
16950.00000	103.44203	-460.16126	103.44203
17000.00000	103.44137	-463.20994	103.44137
17050.00000	103.61371	-465.52473	103.61371
17100.00000	103.63621	-467.56728	103.63621
17150.00000	103.93395	-471.22342	103.93395
17200.00000	104.09213	-474.04361	104.09213
17250.00000	104.15805	-477.30596	104.15805
17300.00000	104.36537	-479.90616	104.36537
17350.00000	104.36059	-482.47381	104.36059
17400.00000	104.57101	-485.20971	104.57101
17450.00000	104.61315	-488.80538	104.61315
17500.00000	104.78868	-491.55510	104.78868
17550.00000	104.93196	-494.36836	104.93196
17600.00000	105.12612	-496.75019	105.12612
17650.00000	105.25077	-500.45790	105.25077
17700.00000	105.38600	-503.55624	105.38600
17750.00000	105.52457	-506.17028	105.52457
17800.00000	105.55062	-509.79498	105.55062
17850.00000	105.65327	-512.32507	105.65327
17900.00000	105.75238	-515.75279	105.75238
17950.00000	105.90872	-519.22148	105.90872
18000.00000	105.95941	-522.93954	105.95941
18050.00000	106.15820	-525.69881	106.15820
18100.00000	106.15792	-529.55588	106.15792
18150.00000	106.20085	-532.08288	106.20085
18200.00000	106.17465	-535.98518	106.17465
18250.00000	106.29012	-538.57133	106.29012
18300.00000	106.42610	-541.89691	106.42610
18350.00000	106.38753	-544.93697	106.38753
18400.00000	106.32617	-548.44740	106.32617
18450.00000	106.30883	-552.74435	106.30883
18500.00000	106.32589	-555.88108	106.32589
18550.00000	106.29789	-558.36487	106.29789
18600.00000	106.38690	-562.14358	106.38690
18650.00000	106.22134	-564.94091	106.22134
18700.00000	106.17709	-568.55119	106.17709
18750.00000	106.20475	-571.55077	106.20475
18800.00000	106.25076	-573.98760	106.25076
18850.00000	106.07776	-577.30694	106.07776
18900.00000	106.02597	-580.05099	106.02597
18950.00000	105.98290	-583.30127	105.98290
19000.00000	105.77481	-585.77747	105.77481
19050.00000	105.85892	-588.69187	105.85892
19100.00000	105.74976	-591.35297	105.74976
19150.00000	105.83478	-593.73311	105.83478
19200.00000	105.74877	-596.04307	105.74877
19250.00000	105.68567	-599.70787	105.68567
19300.00000	105.55921	-601.70636	105.55921
19350.00000	105.54969	-604.32537	105.54969
19400.00000	105.48824	-606.87152	105.48824
19450.00000	105.52624	-608.94060	105.52624
19500.00000	105.40389	-612.41262	105.40389
19550.00000	105.37803	-614.90123	105.37803
19600.00000	105.41907	-617.95962	105.41907
19650.00000	105.32112	-620.16355	105.32112
19700.00000	105.19305	-622.81154	105.19305
19750.00000	105.12702	-624.98257	105.12702
19800.00000	105.17209	-628.45623	105.17209
19850.00000	105.13761	-630.79957	105.13761
19900.00000	105.03618	-634.09826	105.03618
19950.00000	104.96525	-636.57396	104.96525
20000.00000	104.91191	-639.25188	104.91191
20050.00000	104.84297	-641.95652	104.84297
20100.00000	104.72064	-644.72937	104.72064
20150.00000	104.67663	-646.31454	104.67663
20200.00000	104.53297	-649.78675	104.53297
20250.00000	104.39012	-652.10743	104.39012
20300.00000	104.19517	-654.70499	104.19517
20350.00000	104.17446	-657.36669	104.17446
20400.00000	103.97613	-658.91996	103.97613
20450.00000	103.76742	-661.33740	103.76742
20500.00000	103.67581	-663.72888	103.67581
20550.00000	103.31218	-665.02717	103.31218
20600.00000	103.25471	-666.79890	103.25471
20650.00000	103.10244	-668.43126	103.10244
20700.00000	102.91989	-669.81593	102.91989
20750.00000	102.81886	-671.12371	102.81886
20800.00000	102.65167	-671.98874	102.65167
20850.00000	102.60458	-673.19973	102.60458
20900.00000	102.47962	-674.02317	102.47962
20950.00000	102.40477	-674.16302	102.40477
21000.00000	102.38670	-674.72121	102.38670
21050.00000	102.54394	-675.08810	102.54394
21100.00000	102.57685	-675.37387	102.57685
21150.00000	102.76681	-676.37716	102.76681
21200.00000	102.96382	-676.76625	102.96382
21250.00000	103.13926	-679.07859	103.13926
21300.00000	103.41123	-680.04995	103.41123
21350.00000	103.59060	-681.52507	103.59060
21400.00000	103.78403	-683.91573	103.78403
21450.00000	104.01068	-686.19387	104.01068
21500.00000	104.19479	-689.03472	104.19479
21550.00000	104.26598	-691.36730	104.26598
21600.00000	104.46123	-694.37317	104.46123
21650.00000	104.53305	-697.30899	104.53305
21700.00000	104.59248	-699.97768	104.59248
21750.00000	104.67023	-702.82131	104.67023
21800.00000	104.69390	-705.94879	104.69390
21850.00000	104.63300	-708.59641	104.63300
21900.00000	104.63677	-711.35814	104.63677
21950.00000	104.60173	-713.76230	104.60173
22000.00000	104.63527	-716.09716	104.63527
22050.00000	104.59310	-718.32382	104.59310
22100.00000	104.51902	-720.83086	104.51902
22150.00000	104.48304	-723.21569	104.48304
22200.00000	104.51322	-725.30448	104.51322
22250.00000	104.42395	-727.19909	104.42395
22300.00000	104.31220	-729.43543	104.31220
22350.00000	104.38366	-731.80872	104.38366
22400.00000	104.42373	-734.06591	104.42373
22450.00000	104.29095	-736.01501	104.29095
22500.00000	104.21188	-736.92685	104.21188
22550.00000	104.22572	-739.25781	104.22572
22600.00000	104.18615	-742.12886	104.18615
22650.00000	104.15101	-744.08536	104.15101
22700.00000	104.16353	-745.95059	104.16353
22750.00000	104.10484	-746.06016	104.10484
22800.00000	104.12453	-750.33622	104.12453
22850.00000	104.15230	-752.76959	104.15230
22900.00000	104.12521	-753.47234	104.12521
22950.00000	104.20750	-755.23046	104.20750
23000.00000	104.09321	-756.60184	104.09321
23050.00000	104.10055	-759.58858	104.10055
23100.00000	104.13412	-760.54835	104.13412
23150.00000	104.06851	-761.91414	104.06851
23200.00000	104.19876	-765.20900	104.19876
23250.00000	104.00513	-767.75954	104.00513
23300.00000	104.24122	-769.58476	104.24122
23350.00000	103.98131	-772.43554	103.98131
23400.00000	104.02502	-774.22331	104.02502
23450.00000	104.11862	-776.17665	104.11862
23500.00000	103.91070	-777.42102	103.91070
23550.00000	103.91742	-778.14650	103.91742
23600.00000	103.82467	-781.80186	103.82467
23650.00000	103.86462	-783.25325	103.86462
23700.00000	104.09517	-787.39323	104.09517
23750.00000	103.95066	-788.52697	103.95066
23800.00000	103.64751	-788.94607	103.64751
23850.00000	103.77902	-790.71148	103.77902
23900.00000	104.20531	-793.04165	104.20531
23950.00000	103.78679	-796.02098	103.78679
24000.00000	103.67589	-798.59305	103.67589
24050.00000	103.85890	-798.90562	103.85890
24100.00000	104.06312	-802.94327	104.06312
24150.00000	104.01172	-804.88407	104.01172
24200.00000	104.02289	-809.00871	104.02289
24250.00000	103.63901	-808.68556	103.63901
24300.00000	104.04600	-811.70899	104.04600
24350.00000	103.81577	-814.19572	103.81577
24400.00000	103.72997	-817.54172	103.72997
24450.00000	103.31656	-819.36361	103.31656
24500.00000	103.88837	-820.81334	103.88837
24550.00000	103.60325	-825.69768	103.60325
24600.00000	103.97390	-826.23263	103.97390
24650.00000	103.59984	-470.85168	103.59984
24700.00000	103.51988	-110.57380	103.51988
24750.00000	103.53354	244.62854	103.53354
24800.00000	103.36341	602.18506	103.36341
24850.00000	103.04825	961.42989	103.04825
24900.00000	103.09175	1320.04020	103.09175
24950.00000	103.15413	1675.57605	103.15413
25000.00000	103.06387	1669.01196	103.06387
25050.00000	103.37377	1315.18635	103.37377
25100.00000	102.47943	1307.52398	102.47943
25150.00000	102.78629	1306.52750	102.78629
25200.00000	102.45446	1303.20724	102.45446
25250.00000	102.57787	1302.04956	102.57787
25300.00000	102.49910	1301.77736	102.49910
25350.00000	102.30268	1295.07427	102.30268
25400.00000	102.23049	1292.23727	102.23049
25450.00000	102.35641	1291.06720	102.35641
25500.00000	102.01936	1289.99812	102.01936
25550.00000	101.96414	1286.15845	101.96414
25600.00000	102.09664	1284.28870	102.09664
25650.00000	101.83945	1282.20220	101.83945
25700.00000	101.82902	1281.14167	101.82902
25750.00000	101.70782	1278.07045	101.70782
25800.00000	101.53281	1275.03089	101.53281
25850.00000	101.41221	1273.05970	101.41221
25900.00000	101.47724	1269.46430	101.47724
25950.00000	101.11701	1271.37339	101.11701
26000.00000	101.14550	1266.50952	101.14550
26050.00000	101.19685	1264.96260	101.19685
26100.00000	100.92854	1262.66365	100.92854
26150.00000	101.00101	1260.72241	101.00101
26200.00000	100.97248	1258.36426	100.97248
26250.00000	100.89947	1256.37049	100.89947
26300.00000	101.02303	1253.06517	101.02303
26350.00000	100.57609	1251.83310	100.57609
26400.00000	100.47955	1249.55504	100.47955
26450.00000	100.76834	1246.74566	100.76834
26500.00000	100.53546	1244.16670	100.53546
26550.00000	100.25709	1239.79224	100.25709
26600.00000	100.26478	1237.89284	100.26478
26650.00000	100.24966	1238.48805	100.24966
26700.00000	100.04992	1235.55201	100.04992
26750.00000	99.90499	1232.88664	99.90499
26800.00000	99.85075	1227.58031	99.85075
26850.00000	99.96162	1227.53857	99.96162
26900.00000	99.90606	1225.86735	99.90606
26950.00000	99.95573	1222.28053	99.95573
27000.00000	99.47483	1221.38843	99.47483
27050.00000	99.70094	1217.87763	99.70094
27100.00000	99.22868	1217.85747	99.22868
27150.00000	99.14618	1213.65730	99.14618
27200.00000	99.20455	1212.36356	99.20455
27250.00000	98.90126	1211.38278	98.90126
27300.00000	98.18541	1208.21416	98.18541
27350.00000	98.63137	1208.22764	98.63137
27400.00000	98.11349	1205.77097	98.11349
27450.00000	98.05989	1205.00801	98.05989
27500.00000	97.85489	1203.25415	97.85489
27550.00000	97.83749	1201.54680	97.83749
27600.00000	98.07549	1198.65380	98.07549
27650.00000	97.46213	1200.38521	97.46213
27700.00000	97.59847	1195.60859	97.59847
27750.00000	97.46119	1193.69071	97.46119
27800.00000	97.53996	1191.11459	97.53996
27850.00000	97.65752	1194.40382	97.65752
27900.00000	97.21685	1192.19011	97.21685
27950.00000	96.59693	1190.14467	96.59693
28000.00000	96.72612	1191.26035	96.72612
28050.00000	97.34991	1187.48126	97.34991
28100.00000	96.69991	1188.12785	96.69991
28150.00000	96.64826	1186.91926	96.64826
28200.00000	96.87152	1184.48977	96.87152
28250.00000	96.75319	1181.47511	96.75319
28300.00000	96.36677	1182.62819	96.36677
28350.00000	96.54077	1183.51970	96.54077
28400.00000	96.54445	1182.78346	96.54445
28450.00000	97.06068	1181.04547	97.06068
28500.00000	96.69725	1182.35410	96.69725
28550.00000	96.62910	1182.21898	96.62910
28600.00000	96.78380	1180.49600	96.78380
28650.00000	97.00285	1176.80168	97.00285
28700.00000	97.05239	1179.18551	97.05239
28750.00000	97.76231	1178.74581	97.76231
28800.00000	97.76108	1177.10353	97.76108
28850.00000	97.12530	1173.38695	97.12530
28900.00000	97.32635	1172.07339	97.32635
28950.00000	97.43316	1173.08253	97.43316
29000.00000	97.82513	1171.39093	97.82513
29050.00000	97.46765	1172.20917	97.46765
29100.00000	97.92073	1171.94514	97.92073
29150.00000	97.73626	1170.59196	97.73626
29200.00000	97.71677	1167.99764	97.71677
29250.00000	98.17016	1167.10088	98.17016
29300.00000	98.06258	1165.97449	98.06258
29350.00000	98.60369	1163.50427	98.60369
29400.00000	98.66955	1163.09160	98.66955
29450.00000	98.62273	1161.33861	98.62273
29500.00000	99.13828	1160.73191	99.13828
29550.00000	98.84693	1156.40545	98.84693
29600.00000	98.91967	1156.73495	98.91967
29650.00000	99.19506	1153.92067	99.19506
29700.00000	99.21837	1154.51007	99.21837
29750.00000	99.17101	1154.24084	99.17101
29800.00000	99.08546	1151.03754	99.08546
29850.00000	99.23065	1148.97570	99.23065
29900.00000	99.59264	1149.51687	99.59264
29950.00000	98.90400	1148.51504	98.90400
30000.00000	99.39428	1148.63541	99.39428
30050.00000	99.51443	1146.25334	99.51443
30100.00000	99.34111	1147.17975	99.34111
30150.00000	99.48108	1142.84057	99.48108
30200.00000	99.51682	1141.59918	99.51682
30250.00000	99.36954	1141.63890	99.36954
30300.00000	99.17934	1141.90792	99.17934
30350.00000	99.33957	1143.54918	99.33957
30400.00000	99.48055	1141.36886	99.48055
30450.00000	99.15524	1141.80560	99.15524
30500.00000	99.33060	1140.83525	99.33060
30550.00000	99.32116	1142.66672	99.32116
30600.00000	99.40062	1143.97332	99.40062
30650.00000	99.51737	1144.26445	99.51737
30700.00000	99.67826	1144.18070	99.67826
30750.00000	99.70529	1145.76111	99.70529
30800.00000	99.91809	1146.42845	99.91809
30850.00000	100.26000	1149.38081	100.26000
30900.00000	100.32042	1150.35068	100.32042
30950.00000	100.90551	1150.08684	100.90551
31000.00000	101.26634	1150.61881	101.26634
31050.00000	101.74519	1152.22220	101.74519
31100.00000	102.36534	1153.08806	102.36534
31150.00000	102.54761	1152.88971	102.54761
31200.00000	103.49035	1152.52518	103.49035
31250.00000	103.93215	1152.16413	103.93215
31300.00000	104.49946	1151.26290	104.49946
31350.00000	105.16730	1150.18979	105.16730
31400.00000	105.60745	1147.89746	105.60745
31450.00000	106.34669	1146.21252	106.34669
31500.00000	106.79808	1142.71678	106.79808
31550.00000	107.39498	1140.80121	107.39498
31600.00000	108.12988	1136.51022	108.12988
31650.00000	108.53118	1133.38918	108.53118
31700.00000	109.06650	1130.57140	109.06650
31750.00000	109.57917	1127.75052	109.57917
31800.00000	109.95559	1122.89160	109.95559
31850.00000	110.43620	1118.34242	110.43620
31900.00000	110.57930	1114.60513	110.57930
31950.00000	111.06337	1110.50795	111.06337
32000.00000	111.38427	1106.02047	111.38427
32050.00000	111.68601	1101.81143	111.68601
32100.00000	111.88774	1096.63207	111.88774
32150.00000	112.22070	1093.27083	112.22070
32200.00000	112.46762	1087.89460	112.46762
32250.00000	112.61876	1082.91924	112.61876
32300.00000	112.76307	1078.90168	112.76307
32350.00000	112.89459	1074.48146	112.89459
32400.00000	113.06311	1070.73003	113.06311
32450.00000	113.11492	1065.57712	113.11492
32500.00000	113.32558	1061.48260	113.32558
32550.00000	113.46534	1056.04614	113.46534
32600.00000	113.48323	1052.04251	113.48323
32650.00000	113.59389	1047.39830	113.59389
32700.00000	113.55651	1042.68159	113.55651
32750.00000	113.61062	1037.83119	113.61062
32800.00000	113.76536	1033.71564	113.76536
32850.00000	113.81269	1029.02374	113.81269
32900.00000	113.70512	1023.51637	113.70512
32950.00000	113.64713	1018.29117	113.64713
33000.00000	113.62909	1015.54179	113.62909
33050.00000	113.49341	1009.22779	113.49341
33100.00000	113.51110	1004.87020	113.51110
33150.00000	113.40835	1000.69266	113.40835
33200.00000	113.39019	997.59077	113.39019
33250.00000	113.12529	992.94158	113.12529
33300.00000	112.96000	987.70765	112.96000
33350.00000	112.77443	983.08001	112.77443
33400.00000	112.54811	979.80260	112.54811
33450.00000	112.44115	975.15876	112.44115
33500.00000	112.41979	972.75554	112.41979
33550.00000	111.91439	967.04389	111.91439
33600.00000	111.90851	964.39684	111.90851
33650.00000	111.66710	960.21946	111.66710
33700.00000	111.38436	957.32277	111.38436
33750.00000	110.99553	954.00103	110.99553
33800.00000	110.99255	950.57215	110.99255
33850.00000	110.38562	947.45956	110.38562
33900.00000	110.25118	943.88734	110.25118
33950.00000	110.18215	941.91994	110.18215
34000.00000	109.98343	938.58467	109.98343
34050.00000	109.58855	935.33910	109.58855
34100.00000	109.26830	933.89886	109.26830
34150.00000	109.08277	930.25816	109.08277
34200.00000	108.80671	930.30373	108.80671
34250.00000	108.68909	926.94687	108.68909
34300.00000	108.48775	924.77424	108.48775
34350.00000	108.27347	921.38002	108.27347
34400.00000	107.68556	921.50007	107.68556
34450.00000	107.77953	917.91684	107.77953
34500.00000	107.40473	916.76607	107.40473
34550.00000	107.18027	916.42272	107.18027
34600.00000	106.83185	914.22296	106.83185
34650.00000	106.95196	914.79033	106.95196
34700.00000	106.45313	915.01977	106.45313
34750.00000	106.50759	910.93577	106.50759
34800.00000	106.72366	912.19752	106.72366
34850.00000	106.68260	912.01143	106.68260
34900.00000	106.71032	909.19843	106.71032
34950.00000	106.40471	910.85286	106.40471
35000.00000	106.45832	908.04725	106.45832
35050.00000	106.48831	908.12451	106.48831
35100.00000	106.70854	905.98471	106.70854
35150.00000	106.41195	907.69914	106.41195
35200.00000	106.57552	904.59491	106.57552
35250.00000	106.73441	904.27696	106.73441
35300.00000	106.81838	903.02268	106.81838
35350.00000	107.09304	900.94849	107.09304
35400.00000	106.98801	899.81189	106.98801
35450.00000	107.39088	899.16917	107.39088
35500.00000	107.15118	896.98261	107.15118
35550.00000	107.54591	897.03562	107.54591
35600.00000	107.39623	894.81891	107.39623
35650.00000	107.64144	893.83995	107.64144
35700.00000	107.86801	892.57092	107.86801
35750.00000	107.94296	891.15150	107.94296
35800.00000	108.08457	890.62421	108.08457
35850.00000	108.37910	887.24944	108.37910
35900.00000	108.43444	884.62334	108.43444
35950.00000	108.67746	883.48974	108.67746
36000.00000	108.68597	882.50833	108.68597
36050.00000	108.80027	879.79123	108.80027
36100.00000	109.03464	878.59794	109.03464
36150.00000	109.07329	876.17478	109.07329
36200.00000	109.19104	874.97707	109.19104
36250.00000	109.26569	874.11127	109.26569
36300.00000	109.31018	871.77257	109.31018
36350.00000	109.84215	870.39785	109.84215
36400.00000	109.93429	867.61207	109.93429
36450.00000	109.81682	864.91103	109.81682
36500.00000	110.12890	863.42247	110.12890
36550.00000	109.97406	861.95662	109.97406
36600.00000	110.06569	860.50490	110.06569
36650.00000	110.35132	859.21182	110.35132
36700.00000	110.58116	857.09891	110.58116
36750.00000	110.84919	854.78113	110.84919
36800.00000	110.95658	852.84548	110.95658
36850.00000	110.90652	850.15339	110.90652
36900.00000	111.27721	849.01705	111.27721
36950.00000	111.18941	846.37689	111.18941
37000.00000	110.98223	844.69326	110.98223
37050.00000	111.07274	844.89592	111.07274
37100.00000	111.45903	842.03799	111.45903
37150.00000	111.64545	839.11662	111.64545
37200.00000	112.01484	840.09147	112.01484
37250.00000	111.90004	836.82977	111.90004
37300.00000	112.07470	834.54730	112.07470
37350.00000	112.46356	832.64862	112.46356
37400.00000	112.33238	831.27055	112.33238
37450.00000	112.25138	829.91495	112.25138
37500.00000	112.85530	828.26262	112.85530
37550.00000	112.92053	826.49292	112.92053
37600.00000	113.01905	823.57249	113.01905
37650.00000	113.13517	823.55220	113.13517
37700.00000	113.48832	821.27230	113.48832
37750.00000	113.80472	820.46382	113.80472
37800.00000	114.06539	817.18743	114.06539
37850.00000	114.34667	812.87538	114.34667
37900.00000	114.62381	811.06962	114.62381
37950.00000	114.85370	809.88523	114.85370
38000.00000	115.07568	807.07003	115.07568
38050.00000	115.44285	803.73335	115.44285
38100.00000	115.74521	800.87729	115.74521
38150.00000	115.84081	797.09551	115.84081
38200.00000	116.13758	793.74396	116.13758
38250.00000	116.39158	790.99586	116.39158
38300.00000	116.76363	787.16908	116.76363
38350.00000	116.93274	784.21722	116.93274
38400.00000	117.22430	780.93428	117.22430
38450.00000	117.61967	776.05225	117.61967
38500.00000	117.87788	771.08864	117.87788
38550.00000	118.20555	767.16459	118.20555
38600.00000	118.35941	762.44720	118.35941
38650.00000	118.54638	757.48688	118.54638
38700.00000	118.68665	752.84443	118.68665
38750.00000	118.82645	748.53726	118.82645
38800.00000	119.02111	743.91928	119.02111
38850.00000	119.20178	738.82319	119.20178
38900.00000	119.35888	733.40812	119.35888
38950.00000	119.45088	728.05956	119.45088
39000.00000	119.50934	722.53169	119.50934
39050.00000	119.56148	717.45342	119.56148
39100.00000	119.49001	712.30782	119.49001
39150.00000	119.45667	707.29499	119.45667
39200.00000	119.54069	702.31666	119.54069
39250.00000	119.47374	696.63686	119.47374
39300.00000	119.42028	691.28924	119.42028
39350.00000	119.32695	686.42933	119.32695
39400.00000	119.20431	680.63126	119.20431
39450.00000	119.05449	675.64648	119.05449
39500.00000	118.89440	670.38885	118.89440
39550.00000	118.65642	665.25989	118.65642
39600.00000	118.33961	660.70093	118.33961
39650.00000	118.19797	656.49955	118.19797
39700.00000	117.89529	651.56143	117.89529
39750.00000	117.64412	647.03133	117.64412
39800.00000	117.37595	642.89207	117.37595
39850.00000	117.07313	638.98456	117.07313
39900.00000	116.78620	635.01783	116.78620
39950.00000	116.42676	630.96644	116.42676
40000.00000	115.98390	628.85724	115.98390
40050.00000	115.79083	624.09293	115.79083
40100.00000	115.48910	620.45713	115.48910
40150.00000	115.09633	617.88696	115.09633
40200.00000	114.87232	614.49088	114.87232
40250.00000	114.53129	612.13443	114.53129
40300.00000	114.26209	609.93555	114.26209
40350.00000	113.83088	607.09800	113.83088
40400.00000	113.41207	605.02772	113.41207
40450.00000	113.26209	603.10398	113.26209
40500.00000	113.02429	601.49909	113.02429
40550.00000	112.79730	598.92175	112.79730
40600.00000	112.48727	597.31715	112.48727
40650.00000	112.16050	596.30319	112.16050
40700.00000	111.82479	595.62174	111.82479
40750.00000	111.89284	593.83789	111.89284
40800.00000	111.58578	591.96768	111.58578
40850.00000	111.44122	591.78803	111.44122
40900.00000	111.15761	590.19156	111.15761
40950.00000	110.86038	590.26295	110.86038
41000.00000	110.61487	590.54339	110.61487
41050.00000	110.69131	589.38917	110.69131
41100.00000	110.67835	588.50502	110.67835
41150.00000	110.63937	589.01041	110.63937
41200.00000	110.68235	588.88880	110.68235
41250.00000	110.52747	586.53498	110.52747
41300.00000	110.44039	588.10929	110.44039
41350.00000	110.51781	588.17566	110.51781
41400.00000	110.41841	582.94836	110.41841
41450.00000	110.73882	585.66893	110.73882
41500.00000	110.60184	584.16938	110.60184
41550.00000	110.55787	587.93121	110.55787
41600.00000	110.41078	585.10659	110.41078
41650.00000	110.92601	583.82303	110.92601
41700.00000	111.12308	584.24879	111.12308
41750.00000	111.00948	587.66827	111.00948
41800.00000	110.38639	581.55200	110.38639
41850.00000	110.38965	583.27653	110.38965
41900.00000	110.41045	582.57243	110.41045
41950.00000	111.72370	586.41598	111.72370
42000.00000	110.77180	580.85091	110.77180
42050.00000	110.03486	579.00827	110.03486
42100.00000	110.62219	578.87625	110.62219
42150.00000	110.14679	574.30125	110.14679
42200.00000	110.27382	579.72572	110.27382
42250.00000	110.27084	579.61742	110.27084
42300.00000	109.43027	575.81141	109.43027
42350.00000	110.23231	576.16304	110.23231
42400.00000	110.06242	576.65274	110.06242
42450.00000	110.52754	572.50238	110.52754
42500.00000	110.00678	571.95769	110.00678
42550.00000	110.14330	582.04465	110.14330
42600.00000	109.63827	574.09925	109.63827
42650.00000	109.69968	574.16185	109.69968
42700.00000	109.39414	570.74155	109.39414
42750.00000	110.31402	569.19371	110.31402
42800.00000	110.00752	562.67172	110.00752
42850.00000	109.45154	560.49992	109.45154
42900.00000	110.56334	564.54447	110.56334
42950.00000	109.81171	560.69824	109.81171
43000.00000	110.46626	550.92525	110.46626
43050.00000	109.69725	549.27224	109.69725
43100.00000	110.34006	551.78392	110.34006
43150.00000	109.32520	547.48261	109.32520
43200.00000	109.81014	542.68292	109.81014
43250.00000	109.97706	541.40756	109.97706
43300.00000	109.99396	537.26508	109.99396
43350.00000	110.69763	532.83845	110.69763
43400.00000	109.96673	530.50479	109.96673
43450.00000	110.83587	529.37173	110.83587
43500.00000	109.55685	520.47279	109.55685
43550.00000	110.06655	519.59904	110.06655
43600.00000	109.84227	513.63205	109.84227
43650.00000	110.30179	504.09665	110.30179
43700.00000	109.83880	504.59195	109.83880
43750.00000	109.43394	501.86049	109.43394
43800.00000	109.93978	493.60414	109.93978
43850.00000	110.24987	488.38649	110.24987
43900.00000	110.46587	486.83453	110.46587
43950.00000	110.68014	481.14456	110.68014
44000.00000	109.99300	476.57625	109.99300
44050.00000	110.22773	471.68803	110.22773
44100.00000	110.24233	459.59404	110.24233
44150.00000	110.09686	460.10238	110.09686
44200.00000	110.01773	457.35757	110.01773
44250.00000	110.28240	453.02926	110.28240
44300.00000	110.26677	444.40448	110.26677
44350.00000	109.41386	439.80883	109.41386
44400.00000	110.30708	437.05826	110.30708
44450.00000	110.42028	433.09188	110.42028
44500.00000	109.94911	427.85991	109.94911
44550.00000	111.16248	417.21148	111.16248
44600.00000	109.78049	419.93578	109.78049
44650.00000	109.16379	409.65311	109.16379
44700.00000	108.73943	404.57915	108.73943
44750.00000	108.95102	405.82292	108.95102
44800.00000	109.53445	396.33838	109.53445
44850.00000	109.10497	389.37277	109.10497
44900.00000	108.84008	389.38659	108.84008
44950.00000	108.90455	383.06385	108.90455
45000.00000	108.62158	371.91743	108.62158
45050.00000	107.09401	379.22134	107.09401
45100.00000	107.68920	369.09224	107.68920
45150.00000	107.58216	357.74631	107.58216
45200.00000	107.00708	359.95783	107.00708
45250.00000	106.42737	355.58635	106.42737
45300.00000	106.21421	350.86594	106.21421
45350.00000	105.46278	342.23730	105.46278
45400.00000	105.75819	342.01257	105.75819
45450.00000	105.48593	333.01918	105.48593
45500.00000	103.87473	328.93487	103.87473
45550.00000	104.14564	332.38461	104.14564
45600.00000	104.66716	321.78189	104.66716
45650.00000	102.89799	318.02533	102.89799
45700.00000	102.52579	315.15644	102.52579
45750.00000	103.30416	315.91242	103.30416
45800.00000	101.87412	307.36747	101.87412
45850.00000	101.21087	308.26970	101.21087
45900.00000	100.55422	306.17635	100.55422
45950.00000	99.67661	302.60927	99.67661
46000.00000	99.00849	289.93827	99.00849
46050.00000	98.45001	289.90121	98.45001
46100.00000	98.11900	297.98618	98.11900
46150.00000	97.51983	292.93996	97.51983
46200.00000	94.64321	283.51502	94.64321
46250.00000	95.74664	283.90214	95.74664
46300.00000	94.51888	287.60585	94.51888
46350.00000	96.09401	285.66144	96.09401
46400.00000	94.56992	281.24413	94.56992
46450.00000	92.08803	279.29925	92.08803
46500.00000	92.57257	282.73634	92.57257
46550.00000	92.67736	291.40396	92.67736
46600.00000	92.88485	298.04139	92.88485
46650.00000	90.31914	288.41646	90.31914
46700.00000	90.10936	304.05583	90.10936
46750.00000	90.88678	309.24409	90.88678
46800.00000	89.25427	299.03940	89.25427
46850.00000	90.49724	-49.30223	90.49724
46900.00000	91.20122	-51.23186	91.20122
46950.00000	91.92774	-50.81715	91.92774
47000.00000	91.02163	-47.98971	91.02163
47050.00000	93.09665	-50.82306	93.09665
47100.00000	91.20692	-59.26032	91.20692
47150.00000	93.16030	-51.96079	93.16030
47200.00000	91.54185	-58.70605	91.54185
47250.00000	93.89037	-58.41720	93.89037
47300.00000	92.63254	-68.67688	92.63254
47350.00000	92.62478	-412.77412	92.62478
47400.00000	91.46488	-423.29534	91.46488
47450.00000	92.32558	-417.16267	92.32558
47500.00000	91.13466	-432.52950	91.13466
47550.00000	91.16039	-785.22544	91.16039
47600.00000	90.73565	-790.72550	90.73565
47650.00000	92.57753	-792.67999	92.57753
47700.00000	90.11020	-788.05936	90.11020
47750.00000	89.43837	-790.01213	89.43837
47800.00000	90.68008	-805.92514	90.68008
47850.00000	90.97125	-1163.70316	90.97125
47900.00000	91.32672	-1505.84026	91.32672
47950.00000	90.72211	-1505.23967	90.72211
48000.00000	90.05343	-1506.99885	90.05343
48050.00000	91.36337	-1525.17591	91.36337
48100.00000	90.40347	-1517.45539	90.40347
48150.00000	90.51503	-1874.66482	90.51503
48200.00000	90.41119	-1872.75685	90.41119
48250.00000	89.85482	-1871.64729	89.85482
48300.00000	91.26638	-1873.42754	91.26638
48350.00000	91.44163	-1885.68990	91.44163
48400.00000	92.22095	-2231.44175	92.22095
48450.00000	92.28342	-2240.05973	92.28342
48500.00000	91.69803	-2241.17025	91.69803
48550.00000	89.36717	-2239.03384	89.36717
48600.00000	92.62608	-2603.80796	92.62608
48650.00000	92.32828	-2605.56261	92.32828
48700.00000	92.59484	-2607.98951	92.59484
48750.00000	91.27889	-2961.93689	91.27889
48800.00000	92.17950	-2977.88584	92.17950
48850.00000	91.39398	-2977.16650	91.39398
48900.00000	89.82155	-3334.34353	89.82155
48950.00000	92.31352	-3345.79827	92.31352
49000.00000	92.12500	-3345.16010	92.12500
49050.00000	91.83634	-3347.97325	91.83634
49100.00000	90.96346	-3711.93947	90.96346
49150.00000	90.35432	-4077.03483	90.35432
49200.00000	91.66420	-4074.83412	91.66420
49250.00000	91.38260	-4419.97121	91.38260
49300.00000	90.36813	-4096.93773	90.36813
49350.00000	88.39299	-4070.82876	88.39299
49400.00000	89.66773	-3720.62232	89.66773
49450.00000	89.20374	-3376.02710	89.20374
49500.00000	90.00942	-3016.92431	90.00942
49550.00000	87.29003	-2672.78785	87.29003
49600.00000	86.18374	-2657.14013	86.18374
49650.00000	86.93378	-2639.04810	86.93378
49700.00000	85.77066	-2329.98563	85.77066
49750.00000	89.70353	-2312.90075	89.70353
49800.00000	83.25111	-2325.05952	83.25111
49850.00000	79.42178	-2337.65107	79.42178
49900.00000	83.55016	-1929.56174	83.55016
49950.00000	83.93726	-1570.07761	83.93726
