---ACOUSTIC CALIBRATION---
Filename: C:\Data\AZH DATA\AZH41\RightPrimary.calib
Date: 8/27/2019 2:02:36 PM
Format: 4
Probe Tube Correction File: C:\Data\Probe Tube Calibrations\50_ProbeTube.calib
Experiment VIs: 850
EPL_CFTS.exe V12.0.1 (2012)
DAQmx V9.6

Attenuation (dB): 40.000000
Min Freq (Hz): 50.000000
Max Freq (Hz): 49950.000000
Freq Step (Hz): 50.000000
Sample Rate (Hz): 100000.000000
[Smoothing]
Method=None
MA.Iterations=0
MA.Length=0
Loess.Length=0
Loess.Type=Linear
Loess.Robust=FALSE


Freq(Hz)	Mag(dB)	Phase(deg)	Unsmoothed(dB)

50.00000	102.46694	574.05163	102.46694
100.00000	65.08965	390.94213	65.08965
150.00000	76.79097	494.91035	76.79097
200.00000	82.52063	469.36371	82.52063
250.00000	85.72400	445.67769	85.72400
300.00000	86.45435	380.51724	86.45435
350.00000	84.03096	374.98624	84.03096
400.00000	89.65730	380.72214	89.65730
450.00000	89.72349	366.86323	89.72349
500.00000	92.56711	380.99495	92.56711
550.00000	93.46200	374.60008	93.46200
600.00000	98.00237	363.63342	98.00237
650.00000	98.98328	346.77695	98.98328
700.00000	101.29105	334.56081	101.29105
750.00000	102.90125	316.71146	102.90125
800.00000	103.54808	295.02409	103.54808
850.00000	102.78831	277.62083	102.78831
900.00000	101.61455	257.60250	101.61455
950.00000	99.39087	257.02750	99.39087
1000.00000	97.93439	257.05980	97.93439
1050.00000	96.10732	271.29699	96.10732
1100.00000	97.41576	292.42790	97.41576
1150.00000	99.92356	298.00728	99.92356
1200.00000	102.52106	299.41719	102.52106
1250.00000	104.64740	291.37799	104.64740
1300.00000	106.22322	285.20777	106.22322
1350.00000	107.69679	276.83551	107.69679
1400.00000	108.72259	267.84704	108.72259
1450.00000	109.56021	262.25942	109.56021
1500.00000	110.19990	255.41773	110.19990
1550.00000	111.45710	247.33684	111.45710
1600.00000	113.03230	238.03149	113.03230
1650.00000	114.05916	221.55801	114.05916
1700.00000	112.94826	210.97312	112.94826
1750.00000	112.76140	205.47721	112.76140
1800.00000	112.67894	199.92988	112.67894
1850.00000	112.74628	197.87787	112.74628
1900.00000	113.81515	193.73152	113.81515
1950.00000	114.48496	180.76890	114.48496
2000.00000	113.63769	168.09108	113.63769
2050.00000	112.11518	170.42492	112.11518
2100.00000	113.56999	172.32961	113.56999
2150.00000	114.50656	161.77397	114.50656
2200.00000	114.47658	151.72172	114.47658
2250.00000	113.98558	144.35737	113.98558
2300.00000	114.00284	138.40882	114.00284
2350.00000	113.79508	132.09391	113.79508
2400.00000	113.59536	125.92038	113.59536
2450.00000	113.20360	119.73004	113.20360
2500.00000	112.88608	114.27104	112.88608
2550.00000	112.39818	109.17909	112.39818
2600.00000	111.84928	104.92550	111.84928
2650.00000	111.34768	101.06078	111.34768
2700.00000	110.84783	96.22300	110.84783
2750.00000	110.26572	93.83746	110.26572
2800.00000	109.63384	91.23115	109.63384
2850.00000	109.02460	89.14004	109.02460
2900.00000	108.42605	86.91627	108.42605
2950.00000	107.72602	86.00065	107.72602
3000.00000	107.05962	84.96894	107.05962
3050.00000	106.25559	85.01458	106.25559
3100.00000	105.60299	86.73843	105.60299
3150.00000	104.51346	87.85911	104.51346
3200.00000	103.48617	94.40388	103.48617
3250.00000	102.86837	104.13035	102.86837
3300.00000	102.73024	115.15113	102.73024
3350.00000	103.15236	128.52652	103.15236
3400.00000	104.66259	142.47202	104.66259
3450.00000	106.97790	149.10267	106.97790
3500.00000	109.40224	150.67039	109.40224
3550.00000	111.37856	147.34135	111.37856
3600.00000	113.13339	143.47953	113.13339
3650.00000	114.56044	137.91540	114.56044
3700.00000	115.82933	132.44046	115.82933
3750.00000	117.05550	126.21143	117.05550
3800.00000	118.17514	119.23578	118.17514
3850.00000	119.06277	112.11442	119.06277
3900.00000	119.88633	105.54798	119.88633
3950.00000	120.73550	98.30853	120.73550
4000.00000	121.49721	90.93944	121.49721
4050.00000	122.22733	83.62082	122.22733
4100.00000	122.98900	76.01958	122.98900
4150.00000	123.91474	67.54375	123.91474
4200.00000	124.54240	57.50263	124.54240
4250.00000	125.12121	46.44897	125.12121
4300.00000	125.45320	34.66550	125.45320
4350.00000	125.49922	22.75202	125.49922
4400.00000	125.30811	11.62339	125.30811
4450.00000	124.97435	 1.26328	124.97435
4500.00000	124.52253	-8.00349	124.52253
4550.00000	124.10396	-16.94739	124.10396
4600.00000	123.60469	-25.17354	123.60469
4650.00000	123.12571	-32.95939	123.12571
4700.00000	122.59421	-41.08168	122.59421
4750.00000	121.93855	-49.42174	121.93855
4800.00000	121.12336	-57.66864	121.12336
4850.00000	120.00708	-64.98451	120.00708
4900.00000	118.70626	-70.55787	118.70626
4950.00000	117.37515	-73.43051	117.37515
5000.00000	116.14079	-73.98159	116.14079
5050.00000	115.11819	-73.87743	115.11819
5100.00000	113.97114	-70.85012	113.97114
5150.00000	113.83258	-64.97834	113.83258
5200.00000	113.21525	-62.60070	113.21525
5250.00000	114.18083	-50.43425	114.18083
5300.00000	116.48865	-56.79852	116.48865
5350.00000	116.69593	-69.27675	116.69593
5400.00000	116.17413	-76.56218	116.17413
5450.00000	115.64411	-80.71916	115.64411
5500.00000	115.23517	-83.74982	115.23517
5550.00000	114.94987	-86.24086	114.94987
5600.00000	114.69123	-88.82765	114.69123
5650.00000	114.48909	-91.11889	114.48909
5700.00000	114.27918	-93.58811	114.27918
5750.00000	114.13128	-96.06956	114.13128
5800.00000	113.97109	-98.57576	113.97109
5850.00000	113.82196	-101.10145	113.82196
5900.00000	113.69031	-103.43359	113.69031
5950.00000	113.56324	-105.74428	113.56324
6000.00000	113.46649	-107.90458	113.46649
6050.00000	113.37492	-110.25897	113.37492
6100.00000	113.33098	-112.78432	113.33098
6150.00000	113.27231	-115.48317	113.27231
6200.00000	113.21390	-118.30982	113.21390
6250.00000	113.14285	-121.33906	113.14285
6300.00000	113.06126	-124.47156	113.06126
6350.00000	112.92764	-127.52007	112.92764
6400.00000	112.79367	-130.42431	112.79367
6450.00000	112.68697	-133.45089	112.68697
6500.00000	112.55298	-136.23237	112.55298
6550.00000	112.40288	-139.18428	112.40288
6600.00000	112.26297	-141.95781	112.26297
6650.00000	112.14040	-144.84332	112.14040
6700.00000	112.02673	-147.84084	112.02673
6750.00000	111.89270	-150.66338	111.89270
6800.00000	111.78285	-153.47979	111.78285
6850.00000	111.64923	-156.40396	111.64923
6900.00000	111.54204	-159.43223	111.54204
6950.00000	111.36776	-162.25737	111.36776
7000.00000	111.24238	-165.24430	111.24238
7050.00000	111.06888	-168.38092	111.06888
7100.00000	110.92580	-171.59822	110.92580
7150.00000	110.74716	-174.45593	110.74716
7200.00000	110.55046	-177.72989	110.55046
7250.00000	110.33015	-181.00667	110.33015
7300.00000	110.14490	-184.06061	110.14490
7350.00000	109.86818	-187.12526	109.86818
7400.00000	109.60857	-190.30367	109.60857
7450.00000	109.30960	-193.29188	109.30960
7500.00000	109.00159	-195.81073	109.00159
7550.00000	108.70613	-198.72656	108.70613
7600.00000	108.35056	-201.28531	108.35056
7650.00000	108.01062	-203.73249	108.01062
7700.00000	107.72221	-205.96029	107.72221
7750.00000	107.31593	-208.08124	107.31593
7800.00000	106.97243	-209.91898	106.97243
7850.00000	106.63611	-211.53174	106.63611
7900.00000	106.34850	-212.86367	106.34850
7950.00000	106.05093	-214.18259	106.05093
8000.00000	105.79052	-215.30731	105.79052
8050.00000	105.56579	-216.48781	105.56579
8100.00000	105.31663	-217.24850	105.31663
8150.00000	105.13252	-217.42832	105.13252
8200.00000	104.95369	-217.88005	104.95369
8250.00000	104.77867	-218.58715	104.77867
8300.00000	104.61134	-218.86357	104.61134
8350.00000	104.45929	-219.08579	104.45929
8400.00000	104.30991	-220.11731	104.30991
8450.00000	104.12490	-220.97272	104.12490
8500.00000	104.00157	-222.11788	104.00157
8550.00000	103.93562	-223.26236	103.93562
8600.00000	103.86801	-224.93316	103.86801
8650.00000	103.84973	-226.47010	103.84973
8700.00000	103.94728	-228.56456	103.94728
8750.00000	103.94282	-229.33651	103.94282
8800.00000	104.05258	-231.06342	104.05258
8850.00000	104.11675	-232.27165	104.11675
8900.00000	104.22450	-233.20173	104.22450
8950.00000	104.31642	-234.59276	104.31642
9000.00000	104.27408	-235.84479	104.27408
9050.00000	104.29196	-237.49351	104.29196
9100.00000	104.22983	-239.06761	104.22983
9150.00000	104.15696	-240.97896	104.15696
9200.00000	104.13893	-243.27207	104.13893
9250.00000	104.06168	-245.83830	104.06168
9300.00000	104.13323	-248.72314	104.13323
9350.00000	104.19726	-251.53545	104.19726
9400.00000	104.21929	-253.88743	104.21929
9450.00000	104.32236	-256.14381	104.32236
9500.00000	104.45607	-257.60907	104.45607
9550.00000	104.65138	-258.67250	104.65138
9600.00000	104.90790	-261.20724	104.90790
9650.00000	104.93342	-263.77699	104.93342
9700.00000	104.88551	-265.67203	104.88551
9750.00000	104.87755	-268.79271	104.87755
9800.00000	104.78019	-271.23656	104.78019
9850.00000	104.71635	-274.01396	104.71635
9900.00000	104.53471	-277.51838	104.53471
9950.00000	104.53380	-280.32391	104.53380
10000.00000	104.53791	-283.81883	104.53791
10050.00000	104.51498	-286.93345	104.51498
10100.00000	104.45088	-289.69811	104.45088
10150.00000	104.30037	-293.10643	104.30037
10200.00000	104.18813	-295.81149	104.18813
10250.00000	103.98843	-298.84811	103.98843
10300.00000	103.87047	-301.84237	103.87047
10350.00000	103.64942	-304.90355	103.64942
10400.00000	103.38526	-308.55121	103.38526
10450.00000	103.25478	-312.27452	103.25478
10500.00000	103.14294	-315.67290	103.14294
10550.00000	103.01160	-318.86593	103.01160
10600.00000	102.84370	-321.59759	102.84370
10650.00000	102.64237	-323.82641	102.64237
10700.00000	102.44759	-327.14816	102.44759
10750.00000	102.25583	-329.77201	102.25583
10800.00000	101.92617	-331.97023	101.92617
10850.00000	101.61827	-335.36445	101.61827
10900.00000	101.33728	-338.02737	101.33728
10950.00000	101.04338	-340.57234	101.04338
11000.00000	100.75217	-343.28400	100.75217
11050.00000	100.32649	-345.66999	100.32649
11100.00000	100.03813	-348.33532	100.03813
11150.00000	99.60397	-350.27941	99.60397
11200.00000	99.31509	-351.90619	99.31509
11250.00000	98.85514	-354.10942	98.85514
11300.00000	98.39732	-355.90099	98.39732
11350.00000	97.97958	-357.20612	97.97958
11400.00000	97.49107	-358.74867	97.49107
11450.00000	97.12205	-360.58345	97.12205
11500.00000	96.88636	-361.30250	96.88636
11550.00000	96.44357	-362.13840	96.44357
11600.00000	96.21625	-363.63851	96.21625
11650.00000	95.87364	-363.26664	95.87364
11700.00000	95.61438	-363.70887	95.61438
11750.00000	95.37743	-364.37527	95.37743
11800.00000	95.10101	-365.41622	95.10101
11850.00000	94.92308	-365.33876	94.92308
11900.00000	94.50972	-366.44614	94.50972
11950.00000	94.27206	-366.53820	94.27206
12000.00000	94.04706	-366.61389	94.04706
12050.00000	93.66060	-366.62766	93.66060
12100.00000	93.46823	-367.76927	93.46823
12150.00000	93.17261	-368.09610	93.17261
12200.00000	92.92883	-368.71337	92.92883
12250.00000	92.69369	-368.77981	92.69369
12300.00000	93.59225	-369.33148	93.59225
12350.00000	92.30219	-369.27083	92.30219
12400.00000	92.11299	-368.15481	92.11299
12450.00000	91.95389	-367.09333	91.95389
12500.00000	91.79638	-367.01087	91.79638
12550.00000	91.64101	-366.71595	91.64101
12600.00000	91.41252	-366.69641	91.41252
12650.00000	91.37560	-366.54535	91.37560
12700.00000	91.21969	-366.48992	91.21969
12750.00000	91.16892	-366.77390	91.16892
12800.00000	91.06683	-365.92463	91.06683
12850.00000	90.68161	-365.12527	90.68161
12900.00000	90.62994	-365.33788	90.62994
12950.00000	90.65290	-364.75684	90.65290
13000.00000	90.53084	-364.61805	90.53084
13050.00000	90.55553	-363.23444	90.55553
13100.00000	90.43382	-362.92195	90.43382
13150.00000	90.59183	-363.03586	90.59183
13200.00000	90.62880	-360.80228	90.62880
13250.00000	90.64733	-360.51755	90.64733
13300.00000	90.62117	-357.30533	90.62117
13350.00000	90.69184	-357.43196	90.69184
13400.00000	90.90091	-357.34998	90.90091
13450.00000	90.86824	-355.66496	90.86824
13500.00000	91.20311	-354.80166	91.20311
13550.00000	91.11621	-354.27148	91.11621
13600.00000	91.37930	-353.16455	91.37930
13650.00000	91.56738	-352.44684	91.56738
13700.00000	91.60448	-352.52414	91.60448
13750.00000	91.67302	-352.24867	91.67302
13800.00000	91.85555	-353.65102	91.85555
13850.00000	92.12129	-354.91084	92.12129
13900.00000	92.32304	-353.76122	92.32304
13950.00000	92.63392	-353.29751	92.63392
14000.00000	93.14100	-351.62606	93.14100
14050.00000	93.41396	-352.17244	93.41396
14100.00000	93.47536	-351.67248	93.47536
14150.00000	93.96243	-352.24931	93.96243
14200.00000	94.39728	-352.54923	94.39728
14250.00000	95.06043	-351.43677	95.06043
14300.00000	95.40026	-352.46744	95.40026
14350.00000	95.71333	-351.48714	95.71333
14400.00000	95.77561	-352.48115	95.77561
14450.00000	96.10511	-352.76272	96.10511
14500.00000	96.42949	-354.61698	96.42949
14550.00000	96.96691	-355.38159	96.96691
14600.00000	97.21166	-357.67263	97.21166
14650.00000	97.79567	-357.65123	97.79567
14700.00000	98.13256	-363.11457	98.13256
14750.00000	98.61267	-364.17255	98.61267
14800.00000	98.89560	-365.19862	98.89560
14850.00000	99.42304	-366.59378	99.42304
14900.00000	99.85337	-369.02301	99.85337
14950.00000	100.19202	-371.46334	100.19202
15000.00000	100.51478	-374.19986	100.51478
15050.00000	100.76160	-375.34920	100.76160
15100.00000	101.09215	-377.36152	101.09215
15150.00000	101.61444	-380.41225	101.61444
15200.00000	101.79629	-381.56757	101.79629
15250.00000	101.93206	-384.95601	101.93206
15300.00000	102.38634	-388.60101	102.38634
15350.00000	102.54456	-391.95801	102.54456
15400.00000	102.75328	-393.78023	102.75328
15450.00000	102.97193	-397.02135	102.97193
15500.00000	103.28781	-399.92650	103.28781
15550.00000	103.51926	-403.04504	103.51926
15600.00000	103.68213	-406.00554	103.68213
15650.00000	103.97910	-407.14594	103.97910
15700.00000	103.95355	-411.53934	103.95355
15750.00000	104.22859	-413.95526	104.22859
15800.00000	104.40437	-415.91959	104.40437
15850.00000	104.55946	-418.51064	104.55946
15900.00000	104.69281	-421.77403	104.69281
15950.00000	104.82622	-424.35013	104.82622
16000.00000	104.95808	-426.81350	104.95808
16050.00000	105.18216	-429.35676	105.18216
16100.00000	105.17231	-432.48267	105.17231
16150.00000	105.27419	-435.26738	105.27419
16200.00000	105.44867	-438.49688	105.44867
16250.00000	105.58401	-440.60007	105.58401
16300.00000	105.85801	-443.45475	105.85801
16350.00000	105.92904	-446.08216	105.92904
16400.00000	106.04241	-448.49773	106.04241
16450.00000	106.15722	-450.91097	106.15722
16500.00000	106.22929	-453.50955	106.22929
16550.00000	106.43799	-456.83506	106.43799
16600.00000	106.58268	-459.32230	106.58268
16650.00000	106.63094	-461.84207	106.63094
16700.00000	106.81576	-464.14418	106.81576
16750.00000	106.85232	-467.38717	106.85232
16800.00000	107.00751	-470.41937	107.00751
16850.00000	107.21928	-473.06425	107.21928
16900.00000	107.33744	-476.00356	107.33744
16950.00000	107.47460	-478.75598	107.47460
17000.00000	107.48170	-481.47598	107.48170
17050.00000	107.63238	-483.97668	107.63238
17100.00000	107.70310	-485.93106	107.70310
17150.00000	107.92305	-489.54919	107.92305
17200.00000	108.01825	-492.38481	108.01825
17250.00000	108.07084	-495.82442	108.07084
17300.00000	108.25660	-498.66834	108.25660
17350.00000	108.23499	-501.30225	108.23499
17400.00000	108.41594	-504.48038	108.41594
17450.00000	108.45130	-508.04310	108.45130
17500.00000	108.57648	-510.99931	108.57648
17550.00000	108.66132	-514.15807	108.66132
17600.00000	108.82942	-516.95042	108.82942
17650.00000	108.86941	-520.95790	108.86941
17700.00000	108.87165	-524.69123	108.87165
17750.00000	109.08793	-527.09720	109.08793
17800.00000	109.01003	-531.05023	109.01003
17850.00000	109.06388	-534.06426	109.06388
17900.00000	109.07105	-537.58441	109.07105
17950.00000	109.16193	-541.31478	109.16193
18000.00000	109.16597	-545.30669	109.16597
18050.00000	109.27112	-548.17792	109.27112
18100.00000	109.17984	-552.14412	109.17984
18150.00000	109.15620	-555.04611	109.15620
18200.00000	109.05047	-559.19249	109.05047
18250.00000	109.08438	-561.71030	109.08438
18300.00000	109.02377	-565.20848	109.02377
18350.00000	109.01052	-568.26279	109.01052
18400.00000	108.87708	-572.02147	108.87708
18450.00000	108.76616	-576.33010	108.76616
18500.00000	108.70412	-579.42960	108.70412
18550.00000	108.59785	-582.04514	108.59785
18600.00000	108.59624	-585.70679	108.59624
18650.00000	108.33612	-588.43406	108.33612
18700.00000	108.21726	-592.00898	108.21726
18750.00000	108.17301	-594.88716	108.17301
18800.00000	108.15355	-597.21283	108.15355
18850.00000	107.91826	-600.24071	107.91826
18900.00000	107.70867	-602.94898	107.70867
18950.00000	107.66895	-606.24002	107.66895
19000.00000	107.40453	-608.53885	107.40453
19050.00000	107.43502	-611.25051	107.43502
19100.00000	107.26176	-613.43784	107.26176
19150.00000	107.26623	-615.90098	107.26623
19200.00000	107.12599	-618.28250	107.12599
19250.00000	107.01753	-621.72604	107.01753
19300.00000	106.89006	-623.52145	106.89006
19350.00000	106.80967	-626.02586	106.80967
19400.00000	106.68212	-628.19846	106.68212
19450.00000	106.68694	-630.21262	106.68694
19500.00000	106.50679	-633.78681	106.50679
19550.00000	106.46293	-635.90560	106.46293
19600.00000	106.45727	-638.88761	106.45727
19650.00000	106.31819	-640.75632	106.31819
19700.00000	106.13739	-643.45517	106.13739
19750.00000	106.04742	-645.44142	106.04742
19800.00000	106.06786	-648.66810	106.06786
19850.00000	105.98647	-650.98013	105.98647
19900.00000	105.85703	-654.07609	105.85703
19950.00000	105.73880	-656.58918	105.73880
20000.00000	105.66228	-659.07951	105.66228
20050.00000	105.58100	-661.76434	105.58100
20100.00000	105.44078	-664.31162	105.44078
20150.00000	105.33866	-666.00690	105.33866
20200.00000	105.18984	-669.29970	105.18984
20250.00000	105.03167	-671.80474	105.03167
20300.00000	104.81953	-674.34687	104.81953
20350.00000	104.75695	-676.93381	104.75695
20400.00000	104.54225	-678.64920	104.54225
20450.00000	104.30786	-681.16040	104.30786
20500.00000	104.19411	-683.82105	104.19411
20550.00000	103.80984	-685.19321	103.80984
20600.00000	103.71256	-687.22206	103.71256
20650.00000	103.52696	-689.07445	103.52696
20700.00000	103.25846	-690.86830	103.25846
20750.00000	103.13245	-692.57422	103.13245
20800.00000	102.87838	-693.66919	102.87838
20850.00000	102.75445	-695.24885	102.75445
20900.00000	102.50891	-696.48019	102.50891
20950.00000	102.31276	-697.12632	102.31276
21000.00000	102.15090	-697.98414	102.15090
21050.00000	102.16001	-698.39802	102.16001
21100.00000	102.02651	-698.76261	102.02651
21150.00000	102.01693	-699.75519	102.01693
21200.00000	102.01572	-700.14445	102.01572
21250.00000	102.02311	-701.91445	102.02311
21300.00000	102.10921	-702.09944	102.10921
21350.00000	102.11991	-703.10253	102.11991
21400.00000	102.13475	-704.64861	102.13475
21450.00000	102.21616	-705.94200	102.21616
21500.00000	102.28787	-707.86057	102.28787
21550.00000	102.25180	-708.93918	102.25180
21600.00000	102.35368	-710.85091	102.35368
21650.00000	102.35543	-712.75287	102.35543
21700.00000	102.38493	-714.26120	102.38493
21750.00000	102.42864	-716.12390	102.42864
21800.00000	102.43844	-717.86743	102.43844
21850.00000	102.37160	-719.68779	102.37160
21900.00000	102.42229	-721.76866	102.42229
21950.00000	102.39400	-723.12089	102.39400
22000.00000	102.45771	-724.89118	102.45771
22050.00000	102.42619	-726.13078	102.42619
22100.00000	102.39345	-728.08540	102.39345
22150.00000	102.39833	-729.83911	102.39833
22200.00000	102.46852	-731.27509	102.46852
22250.00000	102.45126	-732.61063	102.45126
22300.00000	102.33915	-734.30655	102.33915
22350.00000	102.46962	-736.51391	102.46962
22400.00000	102.54937	-738.27673	102.54937
22450.00000	102.49035	-739.95214	102.49035
22500.00000	102.47825	-741.13334	102.47825
22550.00000	102.49067	-742.94773	102.49067
22600.00000	102.50504	-745.61551	102.50504
22650.00000	102.53611	-747.46974	102.53611
22700.00000	102.55560	-749.00797	102.55560
22750.00000	102.53882	-749.18920	102.53882
22800.00000	102.61850	-753.63722	102.61850
22850.00000	102.67124	-756.29552	102.67124
22900.00000	102.68783	-756.70970	102.68783
22950.00000	102.75261	-758.68819	102.75261
23000.00000	102.71508	-760.01440	102.71508
23050.00000	102.68711	-763.49026	102.68711
23100.00000	102.75167	-765.01517	102.75167
23150.00000	102.62483	-766.17196	102.62483
23200.00000	102.73686	-769.55622	102.73686
23250.00000	102.61092	-772.53849	102.61092
23300.00000	102.81770	-774.95326	102.81770
23350.00000	102.52477	-777.24686	102.52477
23400.00000	102.60047	-779.35287	102.60047
23450.00000	102.56098	-781.98280	102.56098
23500.00000	102.29579	-783.58827	102.29579
23550.00000	102.21180	-784.70439	102.21180
23600.00000	102.10649	-788.75894	102.10649
23650.00000	102.08574	-790.37694	102.08574
23700.00000	102.13758	-794.23796	102.13758
23750.00000	101.89604	-795.28537	101.89604
23800.00000	101.52115	-796.44894	101.52115
23850.00000	101.53109	-797.14936	101.53109
23900.00000	101.73856	-800.08340	101.73856
23950.00000	101.25992	-803.50681	101.25992
24000.00000	100.92454	-805.29791	100.92454
24050.00000	100.99944	-805.61441	100.99944
24100.00000	101.10639	-808.21596	101.10639
24150.00000	100.92331	-809.36917	100.92331
24200.00000	100.84601	-812.48069	100.84601
24250.00000	100.41450	-812.16297	100.41450
24300.00000	100.60813	-813.48296	100.60813
24350.00000	100.42638	-815.03584	100.42638
24400.00000	100.25545	-817.49845	100.25545
24450.00000	99.85357	-817.45044	99.85357
24500.00000	100.30804	-818.09877	100.30804
24550.00000	100.07272	-821.82971	100.07272
24600.00000	100.69469	-821.56076	100.69469
24650.00000	100.26005	-824.84128	100.26005
24700.00000	100.03002	-823.33976	100.03002
24750.00000	100.11502	-467.03344	100.11502
24800.00000	100.10722	-467.34414	100.10722
24850.00000	99.81214	-107.55407	99.81214
24900.00000	99.91481	250.96466	99.91481
24950.00000	100.16686	608.00455	100.16686
25000.00000	100.42071	602.57948	100.42071
25050.00000	100.67993	248.58392	100.67993
25100.00000	100.02765	241.96109	100.02765
25150.00000	100.45947	242.44210	100.45947
25200.00000	100.34979	238.40466	100.34979
25250.00000	100.56798	237.64154	100.56798
25300.00000	100.64866	236.88225	100.64866
25350.00000	100.60550	231.61441	100.60550
25400.00000	100.68438	228.68871	100.68438
25450.00000	100.78869	227.64799	100.78869
25500.00000	100.77675	225.99510	100.77675
25550.00000	100.75896	222.47400	100.75896
25600.00000	100.88745	219.78929	100.88745
25650.00000	100.94919	217.69795	100.94919
25700.00000	100.87837	215.39710	100.87837
25750.00000	100.72259	212.90847	100.72259
25800.00000	100.71657	209.13782	100.71657
25850.00000	100.76324	208.01641	100.76324
25900.00000	100.79413	204.06704	100.79413
25950.00000	100.55925	205.81935	100.55925
26000.00000	100.66589	200.67456	100.66589
26050.00000	100.57118	198.43189	100.57118
26100.00000	100.48014	196.77383	100.48014
26150.00000	100.52861	194.67117	100.52861
26200.00000	100.63288	192.25997	100.63288
26250.00000	100.51081	189.40068	100.51081
26300.00000	100.58886	187.15692	100.58886
26350.00000	100.14945	186.63563	100.14945
26400.00000	100.16628	183.69793	100.16628
26450.00000	100.46852	180.84163	100.46852
26500.00000	100.17695	179.52549	100.17695
26550.00000	100.13038	174.34070	100.13038
26600.00000	99.93881	172.89463	99.93881
26650.00000	100.10299	174.50759	100.10299
26700.00000	100.01171	171.46928	100.01171
26750.00000	99.78079	169.22474	99.78079
26800.00000	99.83453	164.57355	99.83453
26850.00000	100.13347	164.69064	100.13347
26900.00000	100.07901	163.70847	100.07901
26950.00000	100.25178	159.74304	100.25178
27000.00000	99.79811	160.36795	99.79811
27050.00000	99.99288	157.48978	99.99288
27100.00000	99.73647	157.22544	99.73647
27150.00000	99.66691	153.29474	99.66691
27200.00000	99.75963	152.93066	99.75963
27250.00000	99.51191	151.62676	99.51191
27300.00000	99.18267	149.66687	99.18267
27350.00000	99.49466	149.55681	99.49466
27400.00000	99.31264	147.72173	99.31264
27450.00000	99.29418	146.72900	99.29418
27500.00000	99.42213	144.55090	99.42213
27550.00000	99.43204	143.09673	99.43204
27600.00000	99.85301	140.58157	99.85301
27650.00000	99.37564	141.50346	99.37564
27700.00000	99.56101	136.91348	99.56101
27750.00000	99.64711	135.82789	99.64711
27800.00000	99.91242	132.54190	99.91242
27850.00000	100.15589	135.49367	100.15589
27900.00000	99.82131	133.94347	99.82131
27950.00000	99.40174	131.36450	99.40174
28000.00000	99.68720	130.44414	99.68720
28050.00000	100.39129	128.40823	100.39129
28100.00000	99.88725	126.47014	99.88725
28150.00000	99.98739	125.28131	99.98739
28200.00000	100.41687	120.65248	100.41687
28250.00000	100.22682	118.52147	100.22682
28300.00000	100.05165	118.49959	100.05165
28350.00000	100.47939	116.83992	100.47939
28400.00000	100.47588	116.72826	100.47588
28450.00000	101.17283	112.72975	101.17283
28500.00000	100.92164	110.63747	100.92164
28550.00000	100.84564	112.79046	100.84564
28600.00000	100.99285	109.28964	100.99285
28650.00000	101.35446	104.87683	101.35446
28700.00000	101.29318	104.18703	101.29318
28750.00000	101.98026	103.30099	101.98026
28800.00000	101.89467	100.47745	101.89467
28850.00000	101.31772	95.45460	101.31772
28900.00000	101.66204	93.27967	101.66204
28950.00000	101.54797	92.44078	101.54797
29000.00000	101.78122	89.13572	101.78122
29050.00000	101.58925	89.00488	101.58925
29100.00000	101.53259	87.36677	101.53259
29150.00000	101.43023	84.54030	101.43023
29200.00000	101.36699	80.45067	101.36699
29250.00000	101.64045	79.47252	101.64045
29300.00000	101.25470	75.86367	101.25470
29350.00000	101.58179	72.75858	101.58179
29400.00000	101.44725	71.94831	101.44725
29450.00000	101.25530	69.46807	101.25530
29500.00000	101.54619	68.43870	101.54619
29550.00000	101.09889	63.74015	101.09889
29600.00000	100.92675	63.63917	100.92675
29650.00000	100.92893	60.62664	100.92893
29700.00000	100.85809	61.10209	100.85809
29750.00000	100.59871	60.67572	100.59871
29800.00000	100.27899	57.16412	100.27899
29850.00000	100.28041	55.65753	100.28041
29900.00000	100.45162	55.73786	100.45162
29950.00000	99.54782	55.14050	99.54782
30000.00000	99.89454	55.85784	99.89454
30050.00000	99.86293	53.71484	99.86293
30100.00000	99.50807	54.40778	99.50807
30150.00000	99.53624	51.02469	99.53624
30200.00000	99.42681	50.17195	99.42681
30250.00000	99.20869	50.90182	99.20869
30300.00000	98.80571	50.57137	98.80571
30350.00000	98.99656	53.17144	98.99656
30400.00000	98.87830	51.67730	98.87830
30450.00000	98.63546	51.69945	98.63546
30500.00000	98.65621	51.84579	98.65621
30550.00000	98.62119	53.50208	98.62119
30600.00000	98.55718	54.56364	98.55718
30650.00000	98.67298	55.30487	98.67298
30700.00000	98.76299	55.05267	98.76299
30750.00000	98.68505	57.17218	98.68505
30800.00000	98.88031	57.51028	98.88031
30850.00000	99.15543	59.92811	99.15543
30900.00000	99.03483	62.06112	99.03483
30950.00000	99.69698	61.29056	99.69698
31000.00000	100.02103	61.30323	100.02103
31050.00000	100.39410	62.65917	100.39410
31100.00000	100.94125	62.91273	100.94125
31150.00000	101.03069	61.98099	101.03069
31200.00000	101.93799	61.85480	101.93799
31250.00000	102.24359	60.68243	102.24359
31300.00000	102.70705	59.56223	102.70705
31350.00000	103.30465	58.06325	103.30465
31400.00000	103.61109	55.30062	103.61109
31450.00000	104.13449	52.87767	104.13449
31500.00000	104.40486	49.39820	104.40486
31550.00000	104.91399	46.97790	104.91399
31600.00000	105.38886	42.92154	105.38886
31650.00000	105.67203	39.66352	105.67203
31700.00000	105.91147	36.64164	105.91147
31750.00000	106.24968	34.32419	106.24968
31800.00000	106.46136	29.35762	106.46136
31850.00000	106.69855	25.61558	106.69855
31900.00000	106.68711	22.65242	106.68711
31950.00000	106.93012	18.77879	106.93012
32000.00000	106.99026	15.15224	106.99026
32050.00000	107.13217	11.66189	107.13217
32100.00000	107.31843	 7.67756	107.31843
32150.00000	107.30675	 5.13234	107.30675
32200.00000	107.38362	 1.52781	107.38362
32250.00000	107.45072	-2.59836	107.45072
32300.00000	107.48981	-4.99496	107.48981
32350.00000	107.40275	-7.55832	107.40275
32400.00000	107.50977	-10.33632	107.50977
32450.00000	107.46946	-14.04453	107.46946
32500.00000	107.53184	-16.07989	107.53184
32550.00000	107.61836	-19.82456	107.61836
32600.00000	107.67595	-21.95447	107.67595
32650.00000	107.69335	-24.98036	107.69335
32700.00000	107.51806	-27.00701	107.51806
32750.00000	107.59550	-31.14591	107.59550
32800.00000	107.78533	-32.49713	107.78533
32850.00000	107.81533	-36.60069	107.81533
32900.00000	107.81530	-39.33077	107.81530
32950.00000	107.72688	-42.44703	107.72688
33000.00000	107.74359	-42.94995	107.74359
33050.00000	107.68987	-46.91603	107.68987
33100.00000	107.88391	-48.63982	107.88391
33150.00000	107.81918	-50.88910	107.81918
33200.00000	108.05213	-52.28221	108.05213
33250.00000	107.94223	-55.49974	107.94223
33300.00000	107.92402	-59.10480	107.92402
33350.00000	107.96293	-61.39251	107.96293
33400.00000	107.99823	-61.95752	107.99823
33450.00000	108.09687	-65.49048	108.09687
33500.00000	108.22810	-65.81702	108.22810
33550.00000	107.97245	-69.87310	107.97245
33600.00000	108.24206	-72.20178	108.24206
33650.00000	108.27557	-74.27051	108.27557
33700.00000	108.33792	-75.72647	108.33792
33750.00000	108.21453	-78.06987	108.21453
33800.00000	108.39962	-79.67384	108.39962
33850.00000	108.26721	-81.56792	108.26721
33900.00000	108.65378	-84.12597	108.65378
33950.00000	108.52479	-85.61430	108.52479
34000.00000	108.68389	-88.03079	108.68389
34050.00000	108.63302	-89.92944	108.63302
34100.00000	108.64744	-90.61032	108.64744
34150.00000	108.85164	-92.88356	108.85164
34200.00000	109.00933	-93.89097	109.00933
34250.00000	108.98212	-96.83007	108.98212
34300.00000	109.06857	-98.87201	109.06857
34350.00000	109.32434	-99.96719	109.32434
34400.00000	109.14120	-100.80884	109.14120
34450.00000	109.36990	-105.12676	109.36990
34500.00000	109.45696	-105.93150	109.45696
34550.00000	109.67665	-106.23556	109.67665
34600.00000	109.58794	-109.37225	109.58794
34650.00000	110.17844	-107.79086	110.17844
34700.00000	109.86638	-108.94545	109.86638
34750.00000	110.29525	-115.55008	110.29525
34800.00000	110.65154	-113.97433	110.65154
34850.00000	110.93920	-113.62054	110.93920
34900.00000	111.28881	-118.03693	111.28881
34950.00000	111.32640	-118.63362	111.32640
35000.00000	111.52237	-121.32065	111.52237
35050.00000	111.81712	-122.86777	111.81712
35100.00000	112.17549	-125.15375	112.17549
35150.00000	112.09271	-126.11565	112.09271
35200.00000	112.36981	-129.64371	112.36981
35250.00000	112.61406	-132.58194	112.61406
35300.00000	112.91723	-134.59191	112.91723
35350.00000	113.24364	-136.76741	113.24364
35400.00000	113.36991	-139.96024	113.36991
35450.00000	113.56803	-141.14700	113.56803
35500.00000	113.47132	-142.99391	113.47132
35550.00000	113.97554	-144.88403	113.97554
35600.00000	114.08152	-148.31063	114.08152
35650.00000	114.32390	-149.71365	114.32390
35700.00000	114.39522	-151.72201	114.39522
35750.00000	114.52953	-153.54789	114.52953
35800.00000	114.83366	-154.65261	114.83366
35850.00000	115.15961	-158.63830	115.15961
35900.00000	115.40633	-160.62647	115.40633
35950.00000	115.59868	-163.32314	115.59868
36000.00000	115.68523	-165.06254	115.68523
36050.00000	115.96700	-167.86165	115.96700
36100.00000	116.26011	-169.72346	116.26011
36150.00000	116.38045	-171.99785	116.38045
36200.00000	116.61708	-173.40272	116.61708
36250.00000	116.82153	-176.22503	116.82153
36300.00000	116.87190	-178.21652	116.87190
36350.00000	117.31135	-180.39367	117.31135
36400.00000	117.62520	-182.42199	117.62520
36450.00000	117.69481	-185.18884	117.69481
36500.00000	118.13651	-186.63463	118.13651
36550.00000	118.27767	-190.88911	118.27767
36600.00000	118.52903	-193.08668	118.52903
36650.00000	118.86785	-194.93001	118.86785
36700.00000	119.17912	-198.84993	119.17912
36750.00000	119.42406	-201.58800	119.42406
36800.00000	119.57308	-204.10789	119.57308
36850.00000	119.74797	-207.29361	119.74797
36900.00000	120.16436	-210.05665	120.16436
36950.00000	120.23104	-213.96277	120.23104
37000.00000	120.25876	-216.61568	120.25876
37050.00000	120.48735	-219.40390	120.48735
37100.00000	120.87305	-224.05080	120.87305
37150.00000	121.04216	-228.01483	121.04216
37200.00000	121.41302	-230.23791	121.41302
37250.00000	121.22362	-234.69239	121.22362
37300.00000	121.38119	-238.16248	121.38119
37350.00000	121.76274	-241.83803	121.76274
37400.00000	121.60197	-244.88643	121.60197
37450.00000	121.61891	-248.24277	121.61891
37500.00000	122.08088	-252.86171	122.08088
37550.00000	121.78441	-256.00656	121.78441
37600.00000	121.91236	-259.69422	121.91236
37650.00000	121.93717	-263.02550	121.93717
37700.00000	122.04311	-267.52294	122.04311
37750.00000	122.03709	-270.01399	122.03709
37800.00000	121.94563	-274.30430	121.94563
37850.00000	121.96657	-278.80196	121.96657
37900.00000	121.95929	-281.58586	121.95929
37950.00000	121.99759	-284.19654	121.99759
38000.00000	121.86843	-287.10127	121.86843
38050.00000	121.97894	-290.96981	121.97894
38100.00000	122.05069	-294.17920	122.05069
38150.00000	121.98403	-298.20969	121.98403
38200.00000	122.12215	-301.91965	122.12215
38250.00000	122.07386	-304.89066	122.07386
38300.00000	122.20785	-308.97283	122.20785
38350.00000	122.14543	-311.69629	122.14543
38400.00000	122.20307	-315.36219	122.20307
38450.00000	122.25130	-319.58989	122.25130
38500.00000	122.37051	-323.51213	122.37051
38550.00000	122.46912	-326.61717	122.46912
38600.00000	122.58227	-330.44271	122.58227
38650.00000	122.65904	-334.77464	122.65904
38700.00000	122.70735	-338.99125	122.70735
38750.00000	122.79304	-342.74017	122.79304
38800.00000	122.94120	-346.89700	122.94120
38850.00000	123.00683	-351.71175	123.00683
38900.00000	123.12185	-355.95356	123.12185
38950.00000	123.15475	-360.78857	123.15475
39000.00000	123.23002	-365.51596	123.23002
39050.00000	123.38075	-370.34647	123.38075
39100.00000	123.31010	-375.37888	123.31010
39150.00000	123.29545	-380.67256	123.29545
39200.00000	123.34910	-385.55312	123.34910
39250.00000	123.32348	-391.10610	123.32348
39300.00000	123.27788	-396.77559	123.27788
39350.00000	123.17190	-401.43172	123.17190
39400.00000	123.07625	-407.21855	123.07625
39450.00000	122.88281	-412.11807	122.88281
39500.00000	122.78550	-417.67677	122.78550
39550.00000	122.54156	-423.07981	122.54156
39600.00000	122.22944	-428.27509	122.22944
39650.00000	122.04951	-432.93891	122.04951
39700.00000	121.70767	-437.71191	121.70767
39750.00000	121.46288	-442.82113	121.46288
39800.00000	121.14514	-447.37927	121.14514
39850.00000	120.77319	-451.85946	120.77319
39900.00000	120.43342	-455.52986	120.43342
39950.00000	120.09816	-459.89633	120.09816
40000.00000	119.54272	-462.39507	119.54272
40050.00000	119.30039	-467.30406	119.30039
40100.00000	118.95691	-471.01418	118.95691
40150.00000	118.54404	-474.29119	118.54404
40200.00000	118.17518	-477.88853	118.17518
40250.00000	117.76857	-480.42580	117.76857
40300.00000	117.49659	-483.20160	117.49659
40350.00000	116.94080	-485.90859	116.94080
40400.00000	116.52310	-488.54238	116.52310
40450.00000	116.16131	-490.63080	116.16131
40500.00000	115.85758	-492.13368	115.85758
40550.00000	115.49151	-495.21708	115.49151
40600.00000	115.18556	-496.58974	115.18556
40650.00000	114.77759	-497.96498	114.77759
40700.00000	114.26797	-498.76204	114.26797
40750.00000	114.17327	-500.28361	114.17327
40800.00000	113.73904	-502.06088	113.73904
40850.00000	113.43051	-502.59743	113.43051
40900.00000	113.16300	-504.10623	113.16300
40950.00000	112.78609	-503.77583	112.78609
41000.00000	112.30070	-504.21614	112.30070
41050.00000	112.24738	-504.49915	112.24738
41100.00000	112.08643	-504.96156	112.08643
41150.00000	112.06572	-503.90056	112.06572
41200.00000	111.89672	-504.42564	111.89672
41250.00000	111.70137	-506.69684	111.70137
41300.00000	111.39944	-504.96405	111.39944
41350.00000	111.44490	-503.60617	111.44490
41400.00000	111.26041	-507.50088	111.26041
41450.00000	111.39410	-506.16289	111.39410
41500.00000	111.14538	-505.95700	111.14538
41550.00000	111.11139	-502.28020	111.11139
41600.00000	110.73143	-503.51093	110.73143
41650.00000	111.18319	-504.74735	111.18319
41700.00000	111.32008	-504.55416	111.32008
41750.00000	111.06746	-500.27845	111.06746
41800.00000	110.33987	-505.41660	110.33987
41850.00000	110.38912	-504.46756	110.38912
41900.00000	110.41920	-504.20219	110.41920
41950.00000	111.54062	-498.39668	111.54062
42000.00000	110.64497	-504.96028	110.64497
42050.00000	109.83468	-505.66240	109.83468
42100.00000	110.16754	-504.96621	110.16754
42150.00000	109.98449	-510.75754	109.98449
42200.00000	109.87064	-502.59614	109.87064
42250.00000	109.92311	-504.45205	109.92311
42300.00000	109.21914	-508.98693	109.21914
42350.00000	109.68196	-507.76749	109.68196
42400.00000	109.45060	-507.26430	109.45060
42450.00000	110.20658	-513.43328	110.20658
42500.00000	109.51068	-511.31229	109.51068
42550.00000	110.01564	-503.11773	110.01564
42600.00000	109.51025	-509.79556	109.51025
42650.00000	109.15863	-509.98235	109.15863
42700.00000	108.87364	-513.18895	108.87364
42750.00000	109.80074	-515.37402	109.80074
42800.00000	109.10254	-521.32790	109.10254
42850.00000	108.79379	-524.11784	108.79379
42900.00000	110.06029	-518.43454	110.06029
42950.00000	109.01713	-525.66721	109.01713
43000.00000	109.65900	-535.22958	109.65900
43050.00000	109.30973	-537.39583	109.30973
43100.00000	109.42139	-532.75985	109.42139
43150.00000	108.57020	-538.05822	108.57020
43200.00000	108.94879	-543.58449	108.94879
43250.00000	109.40561	-545.50567	109.40561
43300.00000	109.27063	-549.99061	109.27063
43350.00000	110.05184	-553.15279	110.05184
43400.00000	109.21151	-557.95814	109.21151
43450.00000	110.33868	-558.37533	110.33868
43500.00000	109.10484	-566.08239	109.10484
43550.00000	109.68613	-568.68528	109.68613
43600.00000	109.47411	-573.53510	109.47411
43650.00000	109.77761	-580.67823	109.77761
43700.00000	109.61324	-582.01135	109.61324
43750.00000	109.13580	-583.76679	109.13580
43800.00000	109.61280	-589.61757	109.61280
43850.00000	110.04245	-595.28206	110.04245
43900.00000	110.28939	-596.51267	110.28939
43950.00000	110.31795	-603.16101	110.31795
44000.00000	109.83238	-606.99292	109.83238
44050.00000	110.24609	-610.82120	110.24609
44100.00000	110.37830	-624.19040	110.37830
44150.00000	110.03060	-621.67279	110.03060
44200.00000	109.96501	-622.46880	109.96501
44250.00000	110.59708	-630.31450	110.59708
44300.00000	110.65369	-636.28749	110.65369
44350.00000	109.80320	-641.65724	109.80320
44400.00000	110.68368	-645.12223	110.68368
44450.00000	110.77853	-647.05163	110.77853
44500.00000	110.53516	-652.69141	110.53516
44550.00000	111.45329	-663.31804	111.45329
44600.00000	110.48506	-660.23845	110.48506
44650.00000	110.01756	-668.57737	110.01756
44700.00000	110.01945	-675.32044	110.01945
44750.00000	109.90691	-672.82872	109.90691
44800.00000	110.67059	-681.12178	110.67059
44850.00000	110.16074	-687.56529	110.16074
44900.00000	109.96288	-689.03618	109.96288
44950.00000	109.97550	-695.72834	109.97550
45000.00000	110.01712	-704.05578	110.01712
45050.00000	108.52396	-696.80465	108.52396
45100.00000	109.03205	-706.02296	109.03205
45150.00000	109.00640	-716.43788	109.00640
45200.00000	108.43511	-713.46347	108.43511
45250.00000	108.53348	-720.14136	108.53348
45300.00000	108.08761	-723.77625	108.08761
45350.00000	107.69414	-732.06002	107.69414
45400.00000	107.80906	-732.13226	107.80906
45450.00000	107.56698	-738.25112	107.56698
45500.00000	105.95283	-746.58184	105.95283
45550.00000	106.15762	-741.53713	106.15762
45600.00000	107.23181	-750.98121	107.23181
45650.00000	105.07692	-756.15375	105.07692
45700.00000	104.97421	-757.43588	104.97421
45750.00000	105.84563	-752.79296	105.84563
45800.00000	104.68876	-763.57603	104.68876
45850.00000	104.52778	-765.44718	104.52778
45900.00000	103.88645	-765.84354	103.88645
45950.00000	103.30754	-765.15149	103.30754
46000.00000	101.98076	-783.40563	101.98076
46050.00000	101.84024	-783.90653	101.84024
46100.00000	100.67170	-778.21741	100.67170
46150.00000	100.14908	-779.12400	100.14908
46200.00000	99.12068	-790.19624	99.12068
46250.00000	99.36475	-785.71575	99.36475
46300.00000	98.78590	-787.58551	98.78590
46350.00000	99.48084	-790.22042	99.48084
46400.00000	97.96642	-794.45287	97.96642
46450.00000	96.12879	-791.51451	96.12879
46500.00000	97.16983	-792.72387	97.16983
46550.00000	96.71783	-785.36342	96.71783
46600.00000	96.61666	-784.53065	96.61666
46650.00000	94.31010	-788.93047	94.31010
46700.00000	94.37153	-778.99280	94.37153
46750.00000	94.66561	-766.95200	94.66561
46800.00000	92.81407	-779.61500	92.81407
46850.00000	94.60649	-1123.30745	94.60649
46900.00000	94.44412	-1129.58817	94.44412
46950.00000	95.38452	-1130.97759	95.38452
47000.00000	94.66660	-1129.89664	94.66660
47050.00000	96.84660	-1138.23541	96.84660
47100.00000	95.78998	-1136.84314	95.78998
47150.00000	96.42939	-1135.22113	96.42939
47200.00000	94.74285	-1137.61917	94.74285
47250.00000	96.83127	-1137.00523	96.83127
47300.00000	96.28794	-1147.40623	96.28794
47350.00000	95.54116	-1488.57644	95.54116
47400.00000	95.20348	-1501.39418	95.20348
47450.00000	96.47163	-1497.12172	96.47163
47500.00000	94.74096	-1512.90415	94.74096
47550.00000	94.25380	-1859.99818	94.25380
47600.00000	94.76949	-1864.02703	94.76949
47650.00000	96.37998	-1868.61011	96.37998
47700.00000	94.80344	-1867.61372	94.80344
47750.00000	93.58713	-1865.12466	93.58713
47800.00000	93.92879	-1880.26216	93.92879
47850.00000	95.09769	-2231.02136	95.09769
47900.00000	95.15826	-2580.15106	95.15826
47950.00000	94.37336	-2583.36172	94.37336
48000.00000	94.35420	-2581.28844	94.35420
48050.00000	95.93993	-2592.01556	95.93993
48100.00000	94.05267	-2590.70231	94.05267
48150.00000	95.00795	-2943.63459	95.00795
48200.00000	95.08170	-2942.56349	95.08170
48250.00000	95.05646	-2950.85198	95.05646
48300.00000	95.67914	-2947.50202	95.67914
48350.00000	95.45424	-2957.60234	95.45424
48400.00000	95.92309	-3302.50696	95.92309
48450.00000	96.85728	-3309.09052	96.85728
48500.00000	96.03020	-3309.37607	96.03020
48550.00000	94.57344	-3320.87632	94.57344
48600.00000	97.04738	-3671.76591	97.04738
48650.00000	97.28676	-3672.61663	97.28676
48700.00000	98.24539	-3682.90216	98.24539
48750.00000	96.83611	-4032.53609	96.83611
48800.00000	97.93101	-4038.42092	97.93101
48850.00000	97.71257	-4046.00495	97.71257
48900.00000	97.33272	-4403.25241	97.33272
48950.00000	97.76267	-4418.20381	97.76267
49000.00000	98.42578	-4417.25126	98.42578
49050.00000	97.59114	-4423.99791	97.59114
49100.00000	97.58200	-4785.86808	97.58200
49150.00000	99.68606	-5144.14554	99.68606
49200.00000	97.91948	-5158.12193	97.91948
49250.00000	97.69414	-5509.13799	97.69414
49300.00000	98.68680	-5162.65976	98.68680
49350.00000	96.32626	-5148.83808	96.32626
49400.00000	96.65195	-4806.54522	96.65195
49450.00000	96.01190	-4455.80592	96.01190
49500.00000	96.34905	-4103.55382	96.34905
49550.00000	96.33520	-3756.85601	96.33520
49600.00000	94.23457	-3747.33446	94.23457
49650.00000	94.18405	-3753.70421	94.18405
49700.00000	93.88113	-3417.04631	93.88113
49750.00000	94.00091	-3419.75112	94.00091
49800.00000	88.65940	-3425.33963	88.65940
49850.00000	89.29299	-3422.96308	89.29299
49900.00000	84.26655	-3048.42121	84.26655
49950.00000	82.06094	-2752.90215	82.06094
