---ACOUSTIC CALIBRATION---
Filename: C:\Data\CL0809 DATA\CL0809100\RightPrimary.calib
Date: 8/9/2019 9:01:48 AM
Format: 4
Probe Tube Correction File: C:\Data\Probe Tube Calibrations\74_ProbeTube.calib
Experiment VIs: 2128
EPL_CFTS.exe V15.0.1f5 (2015)
DAQmx V15.1

Attenuation (dB): 40.000000
Min Freq (Hz): 50.000000
Max Freq (Hz): 99950.000000
Freq Step (Hz): 50.000000
Sample Rate (Hz): 200000.000000
[Smoothing]
Method=None
MA.Iterations=0
MA.Length=0
Loess.Length=0
Loess.Type=Linear
Loess.Robust=FALSE


Freq(Hz)	Mag(dB)	Phase(deg)	Unsmoothed(dB)

50.00000	95.92089	190.57083	95.92089
100.00000	69.98543	290.59010	69.98543
150.00000	64.95824	415.62237	64.95824
200.00000	55.17087	479.24203	55.17087
250.00000	52.48523	757.76458	52.48523
300.00000	65.02488	848.49193	65.02488
350.00000	59.52582	1012.94984	59.52582
400.00000	57.00916	1076.48327	57.00916
450.00000	60.15365	1104.04536	60.15365
500.00000	61.99226	1206.82500	61.99226
550.00000	66.43741	1161.09762	66.43741
600.00000	67.11678	1120.93430	67.11678
650.00000	73.47463	1124.07888	73.47463
700.00000	74.33166	1125.41016	74.33166
750.00000	77.30355	1094.39863	77.30355
800.00000	78.41538	1084.74850	78.41538
850.00000	77.72126	1079.58316	77.72126
900.00000	78.15133	1086.32009	78.15133
950.00000	80.90667	1086.37562	80.90667
1000.00000	82.95761	1090.57084	82.95761
1050.00000	86.17227	1085.28115	86.17227
1100.00000	89.05222	1073.43834	89.05222
1150.00000	91.06404	1059.76471	91.06404
1200.00000	92.45967	1045.01572	92.45967
1250.00000	93.11872	1030.81730	93.11872
1300.00000	93.38665	1023.26927	93.38665
1350.00000	94.37940	1016.47183	94.37940
1400.00000	95.46208	1007.59800	95.46208
1450.00000	96.16169	996.02250	96.16169
1500.00000	96.53845	985.30781	96.53845
1550.00000	96.68326	976.08416	96.68326
1600.00000	97.04309	971.16099	97.04309
1650.00000	97.57481	968.27556	97.57481
1700.00000	101.47552	953.11527	101.47552
1750.00000	98.56090	933.01914	98.56090
1800.00000	98.33697	927.19315	98.33697
1850.00000	98.06345	919.02429	98.06345
1900.00000	97.86349	911.73365	97.86349
1950.00000	97.20177	906.10331	97.20177
2000.00000	96.67244	901.69762	96.67244
2050.00000	96.27696	901.75719	96.27696
2100.00000	97.05070	901.12087	97.05070
2150.00000	98.02446	892.93394	98.02446
2200.00000	97.97402	880.23427	97.97402
2250.00000	97.07313	872.26478	97.07313
2300.00000	96.46910	870.34954	96.46910
2350.00000	96.62282	865.74569	96.62282
2400.00000	96.65409	859.32217	96.65409
2450.00000	96.10564	850.98893	96.10564
2500.00000	95.20366	848.23083	95.20366
2550.00000	94.97812	845.16410	94.97812
2600.00000	94.65229	841.56205	94.65229
2650.00000	94.24347	838.43345	94.24347
2700.00000	93.85577	834.24363	93.85577
2750.00000	93.41519	831.01377	93.41519
2800.00000	92.93064	827.38889	92.93064
2850.00000	92.46029	825.22024	92.46029
2900.00000	92.00802	822.31702	92.00802
2950.00000	91.51926	821.01212	91.51926
3000.00000	91.02406	819.68137	91.02406
3050.00000	90.69929	818.91252	90.69929
3100.00000	90.38219	817.97017	90.38219
3150.00000	89.97517	817.55007	89.97517
3200.00000	89.80111	816.23835	89.80111
3250.00000	89.66248	814.40783	89.66248
3300.00000	89.29615	812.56453	89.29615
3350.00000	89.05722	811.14859	89.05722
3400.00000	88.73920	809.43687	88.73920
3450.00000	88.23885	809.41085	88.23885
3500.00000	87.81078	809.16068	87.81078
3550.00000	87.92062	807.82928	87.92062
3600.00000	87.34638	804.04348	87.34638
3650.00000	86.65812	802.93763	86.65812
3700.00000	85.77106	800.92910	85.77106
3750.00000	84.79373	799.25019	84.79373
3800.00000	83.81317	800.30998	83.81317
3850.00000	82.04423	796.96118	82.04423
3900.00000	80.03223	804.30108	80.03223
3950.00000	77.70948	821.39413	77.70948
4000.00000	77.21247	844.18094	77.21247
4050.00000	77.68718	873.11266	77.68718
4100.00000	80.70340	890.88973	80.70340
4150.00000	84.31885	897.61502	84.31885
4200.00000	86.85165	898.21316	86.85165
4250.00000	88.28040	890.33631	88.28040
4300.00000	89.49568	891.78731	89.49568
4350.00000	91.03668	890.95171	91.03668
4400.00000	92.49347	887.98146	92.49347
4450.00000	93.59017	883.54265	93.59017
4500.00000	94.64273	879.62627	94.64273
4550.00000	95.47409	876.46770	95.47409
4600.00000	96.41103	872.92135	96.41103
4650.00000	97.27356	869.40726	97.27356
4700.00000	97.99817	866.03911	97.99817
4750.00000	98.73061	863.58322	98.73061
4800.00000	99.63220	861.44574	99.63220
4850.00000	100.60627	858.67307	100.60627
4900.00000	101.65000	854.75218	101.65000
4950.00000	102.69944	850.83231	102.69944
5000.00000	103.80512	846.03692	103.80512
5050.00000	104.96319	840.75548	104.96319
5100.00000	106.24432	835.01886	106.24432
5150.00000	107.76514	828.09844	107.76514
5200.00000	109.69545	818.45538	109.69545
5250.00000	112.24090	801.99515	112.24090
5300.00000	114.57330	765.43054	114.57330
5350.00000	111.32034	716.53104	111.32034
5400.00000	104.66698	699.15497	104.66698
5450.00000	98.69883	710.42546	98.69883
5500.00000	96.91296	738.89561	96.91296
5550.00000	97.97797	747.67496	97.97797
5600.00000	96.74801	747.35898	96.74801
5650.00000	95.61843	765.60165	95.61843
5700.00000	97.15727	779.89744	97.15727
5750.00000	98.98906	784.30663	98.98906
5800.00000	100.45900	784.52706	100.45900
5850.00000	101.66197	782.55727	101.66197
5900.00000	102.66611	779.40392	102.66611
5950.00000	103.54081	775.74513	103.54081
6000.00000	104.27127	771.37133	104.27127
6050.00000	104.81050	766.38494	104.81050
6100.00000	105.14597	761.68555	105.14597
6150.00000	105.28969	757.92487	105.28969
6200.00000	105.42867	755.79026	105.42867
6250.00000	105.67043	754.66909	105.67043
6300.00000	106.09453	754.14316	106.09453
6350.00000	106.73048	753.53646	106.73048
6400.00000	107.50744	752.25891	107.50744
6450.00000	108.39511	750.14082	108.39511
6500.00000	109.33775	747.05964	109.33775
6550.00000	110.33334	743.00454	110.33334
6600.00000	111.30034	738.00808	111.30034
6650.00000	112.26071	732.16759	112.26071
6700.00000	113.21202	725.30694	113.21202
6750.00000	114.09552	717.25713	114.09552
6800.00000	114.86110	708.20543	114.86110
6850.00000	115.47760	698.14551	115.47760
6900.00000	115.88022	687.43175	115.88022
6950.00000	116.04430	676.46892	116.04430
7000.00000	115.96872	665.79143	115.96872
7050.00000	115.71454	656.02767	115.71454
7100.00000	115.34053	647.13148	115.34053
7150.00000	114.91035	639.12036	114.91035
7200.00000	114.42668	631.88640	114.42668
7250.00000	113.92896	625.48493	113.92896
7300.00000	113.44794	619.70239	113.44794
7350.00000	112.99445	614.48593	112.99445
7400.00000	112.60883	609.69016	112.60883
7450.00000	112.26181	604.76542	112.26181
7500.00000	111.89739	599.71242	111.89739
7550.00000	111.49247	594.73272	111.49247
7600.00000	111.06139	590.14674	111.06139
7650.00000	110.61917	585.83420	110.61917
7700.00000	110.17513	581.92496	110.17513
7750.00000	109.74606	578.21040	109.74606
7800.00000	109.31415	574.86529	109.31415
7850.00000	108.90797	571.75236	108.90797
7900.00000	108.52725	568.84161	108.52725
7950.00000	108.19383	566.25478	108.19383
8000.00000	107.86446	563.71012	107.86446
8050.00000	107.57121	561.38847	107.57121
8100.00000	107.30540	559.07478	107.30540
8150.00000	107.09014	556.87762	107.09014
8200.00000	106.89699	554.43021	106.89699
8250.00000	106.72611	551.98974	106.72611
8300.00000	106.54740	549.61948	106.54740
8350.00000	106.37530	547.23036	106.37530
8400.00000	106.26301	544.92027	106.26301
8450.00000	106.14110	542.35815	106.14110
8500.00000	106.05655	539.84692	106.05655
8550.00000	105.96164	537.13776	105.96164
8600.00000	105.90234	534.48540	105.90234
8650.00000	105.84784	531.66423	105.84784
8700.00000	105.73350	528.59643	105.73350
8750.00000	105.66256	525.59026	105.66256
8800.00000	105.59427	522.44376	105.59427
8850.00000	105.54574	519.07660	105.54574
8900.00000	105.43323	515.66575	105.43323
8950.00000	105.31019	512.21926	105.31019
9000.00000	105.16233	509.08468	105.16233
9050.00000	105.07429	505.69862	105.07429
9100.00000	104.97047	502.04277	104.97047
9150.00000	104.76873	498.33240	104.76873
9200.00000	104.58308	495.14782	104.58308
9250.00000	104.38892	491.54100	104.38892
9300.00000	104.19815	488.05056	104.19815
9350.00000	103.95018	484.41208	103.95018
9400.00000	103.66837	481.02028	103.66837
9450.00000	103.38045	477.91071	103.38045
9500.00000	103.11560	474.90444	103.11560
9550.00000	102.84243	472.21378	102.84243
9600.00000	102.59953	469.51007	102.59953
9650.00000	102.34462	466.85963	102.34462
9700.00000	102.05011	463.89055	102.05011
9750.00000	101.75539	461.49887	101.75539
9800.00000	101.42495	459.15531	101.42495
9850.00000	101.14495	456.76128	101.14495
9900.00000	100.80213	454.85476	100.80213
9950.00000	100.33751	453.35117	100.33751
10000.00000	99.92181	453.58407	99.92181
10050.00000	99.76177	456.35002	99.76177
10100.00000	100.45817	457.18863	100.45817
10150.00000	100.90941	452.57642	100.90941
10200.00000	100.90446	447.71058	100.90446
10250.00000	100.74853	444.16420	100.74853
10300.00000	100.63897	441.11490	100.63897
10350.00000	100.48137	438.35130	100.48137
10400.00000	100.29569	435.75595	100.29569
10450.00000	100.20175	433.36593	100.20175
10500.00000	100.13962	430.74732	100.13962
10550.00000	100.10293	428.34863	100.10293
10600.00000	100.09050	425.24685	100.09050
10650.00000	100.05529	422.58313	100.05529
10700.00000	100.05404	419.48468	100.05404
10750.00000	100.05864	416.50884	100.05864
10800.00000	100.07697	412.76464	100.07697
10850.00000	100.09765	409.11774	100.09765
10900.00000	100.08970	405.59693	100.08970
10950.00000	100.05480	401.51128	100.05480
11000.00000	100.03491	397.44989	100.03491
11050.00000	99.92397	393.29719	99.92397
11100.00000	99.88123	388.93636	99.88123
11150.00000	99.76343	384.23190	99.76343
11200.00000	99.61719	379.60787	99.61719
11250.00000	99.37382	374.78538	99.37382
11300.00000	99.14082	370.05522	99.14082
11350.00000	98.87746	365.08969	98.87746
11400.00000	98.53369	360.01250	98.53369
11450.00000	98.17040	355.03038	98.17040
11500.00000	97.77593	350.12219	97.77593
11550.00000	97.31056	345.04257	97.31056
11600.00000	96.80856	340.48822	96.80856
11650.00000	96.35563	335.96395	96.35563
11700.00000	95.83262	331.35202	95.83262
11750.00000	95.25999	327.25110	95.25999
11800.00000	94.72321	323.51831	94.72321
11850.00000	94.21817	319.37060	94.21817
11900.00000	93.61017	316.14792	93.61017
11950.00000	93.11329	312.79271	93.11329
12000.00000	92.58927	309.60409	92.58927
12050.00000	92.00232	306.91132	92.00232
12100.00000	91.28080	304.15153	91.28080
12150.00000	90.69260	301.08323	90.69260
12200.00000	90.06079	298.13866	90.06079
12250.00000	89.40676	296.33947	89.40676
12300.00000	88.66034	294.00770	88.66034
12350.00000	87.99470	292.20845	87.99470
12400.00000	87.36991	289.55035	87.36991
12450.00000	86.77839	287.29374	86.77839
12500.00000	86.11293	285.83813	86.11293
12550.00000	85.30327	283.61424	85.30327
12600.00000	84.74610	280.39941	84.74610
12650.00000	84.14903	279.64220	84.14903
12700.00000	83.53809	277.49551	83.53809
12750.00000	82.99035	274.50647	82.99035
12800.00000	82.38385	272.35316	82.38385
12850.00000	81.66714	270.37301	81.66714
12900.00000	81.06030	267.04162	81.06030
12950.00000	80.68221	264.01986	80.68221
13000.00000	80.06201	259.86976	80.06201
13050.00000	79.83651	256.77891	79.83651
13100.00000	79.28462	253.31840	79.28462
13150.00000	79.12199	246.53547	79.12199
13200.00000	78.78471	241.50213	78.78471
13250.00000	79.23383	234.33074	79.23383
13300.00000	79.91628	229.92787	79.91628
13350.00000	80.33508	224.41263	80.33508
13400.00000	81.56782	224.41416	81.56782
13450.00000	82.03141	228.49585	82.03141
13500.00000	81.54446	237.40258	81.54446
13550.00000	80.76859	239.16520	80.76859
13600.00000	79.50316	237.68559	79.50316
13650.00000	78.15291	230.73427	78.15291
13700.00000	77.33526	223.76262	77.33526
13750.00000	76.76271	209.95678	76.76271
13800.00000	76.76704	199.45090	76.76704
13850.00000	77.41758	187.07086	77.41758
13900.00000	78.08206	173.65590	78.08206
13950.00000	79.04956	163.96848	79.04956
14000.00000	81.10684	153.42047	81.10684
14050.00000	83.55173	150.05904	83.55173
14100.00000	86.20616	146.50784	86.20616
14150.00000	88.07498	154.35039	88.07498
14200.00000	88.60240	164.63833	88.60240
14250.00000	87.89501	171.38873	87.89501
14300.00000	86.96903	172.68248	86.96903
14350.00000	86.21666	169.30759	86.21666
14400.00000	85.91214	163.66660	85.91214
14450.00000	85.71255	156.56606	85.71255
14500.00000	85.84948	148.83705	85.84948
14550.00000	86.21311	141.35202	86.21311
14600.00000	86.81960	134.51679	86.81960
14650.00000	87.58998	127.95406	87.58998
14700.00000	88.52630	120.54310	88.52630
14750.00000	89.57124	115.26501	89.57124
14800.00000	90.84780	111.17946	90.84780
14850.00000	92.20786	108.76046	92.20786
14900.00000	93.55612	106.76026	93.55612
14950.00000	94.45080	108.92301	94.45080
15000.00000	95.05106	110.34404	95.05106
15050.00000	95.36366	112.36443	95.36366
15100.00000	95.40540	110.75843	95.40540
15150.00000	95.30759	107.73374	95.30759
15200.00000	95.39249	104.23890	95.39249
15250.00000	95.40427	99.44721	95.40427
15300.00000	95.65107	93.95229	95.65107
15350.00000	96.09619	88.74141	96.09619
15400.00000	96.58134	82.81964	96.58134
15450.00000	97.15854	76.32204	97.15854
15500.00000	97.88003	71.05312	97.88003
15550.00000	98.59531	66.85815	98.59531
15600.00000	99.44675	63.06258	99.44675
15650.00000	100.15903	60.15850	100.15903
15700.00000	100.59164	58.54177	100.59164
15750.00000	101.15451	57.02491	101.15451
15800.00000	101.47364	54.94277	101.47364
15850.00000	101.78472	52.64533	101.78472
15900.00000	101.90840	48.87562	101.90840
15950.00000	102.05686	44.58146	102.05686
16000.00000	102.24121	39.91711	102.24121
16050.00000	102.52019	34.79515	102.52019
16100.00000	102.79617	29.55800	102.79617
16150.00000	103.21812	23.86184	103.21812
16200.00000	103.65194	19.01890	103.65194
16250.00000	104.06195	13.49200	104.06195
16300.00000	104.51044	 8.84561	104.51044
16350.00000	104.88469	 4.87671	104.88469
16400.00000	105.18640	 0.71652	105.18640
16450.00000	105.49670	-2.79892	105.49670
16500.00000	105.66360	-6.77466	105.66360
16550.00000	105.79085	-10.65895	105.79085
16600.00000	105.85506	-15.01050	105.85506
16650.00000	105.87467	-19.52934	105.87467
16700.00000	105.93083	-24.19684	105.93083
16750.00000	105.96779	-28.97957	105.96779
16800.00000	106.02612	-33.50910	106.02612
16850.00000	106.15628	-38.41093	106.15628
16900.00000	106.27560	-42.30147	106.27560
16950.00000	106.35115	-46.69010	106.35115
17000.00000	106.45909	-50.59839	106.45909
17050.00000	106.56791	-53.97926	106.56791
17100.00000	106.62783	-57.28555	106.62783
17150.00000	106.65758	-60.48985	106.65758
17200.00000	106.65655	-63.97296	106.65655
17250.00000	106.64488	-67.50947	106.64488
17300.00000	106.66058	-71.24288	106.66058
17350.00000	106.65129	-75.04124	106.65129
17400.00000	106.68411	-78.95958	106.68411
17450.00000	106.70301	-82.72487	106.70301
17500.00000	106.72630	-86.27754	106.72630
17550.00000	106.79631	-90.00141	106.79631
17600.00000	106.85494	-93.32115	106.85494
17650.00000	106.92044	-96.54473	106.92044
17700.00000	106.98075	-99.70092	106.98075
17750.00000	107.02207	-102.89253	107.02207
17800.00000	107.02481	-106.11629	107.02481
17850.00000	107.07337	-109.32691	107.07337
17900.00000	107.08720	-112.49300	107.08720
17950.00000	107.08536	-115.81154	107.08536
18000.00000	107.12089	-119.22722	107.12089
18050.00000	107.12496	-122.61543	107.12496
18100.00000	107.15471	-126.01484	107.15471
18150.00000	107.16318	-129.48871	107.16318
18200.00000	107.17172	-132.94146	107.17172
18250.00000	107.18672	-136.33132	107.18672
18300.00000	107.18406	-139.68288	107.18406
18350.00000	107.18932	-143.17843	107.18932
18400.00000	107.16551	-146.41985	107.16551
18450.00000	107.16534	-149.70002	107.16534
18500.00000	107.14770	-152.94038	107.14770
18550.00000	107.13783	-156.50381	107.13783
18600.00000	107.06375	-159.79697	107.06375
18650.00000	107.06184	-162.94451	107.06184
18700.00000	107.03213	-166.06029	107.03213
18750.00000	106.97645	-169.27105	106.97645
18800.00000	106.91184	-172.51055	106.91184
18850.00000	106.85248	-175.41666	106.85248
18900.00000	106.75797	-178.33174	106.75797
18950.00000	106.70830	-181.32636	106.70830
19000.00000	106.62425	-184.44798	106.62425
19050.00000	106.55513	-187.56223	106.55513
19100.00000	106.49671	-190.34773	106.49671
19150.00000	106.44675	-193.05081	106.44675
19200.00000	106.39158	-195.95326	106.39158
19250.00000	106.31893	-198.59283	106.31893
19300.00000	106.30851	-201.10485	106.30851
19350.00000	106.27541	-204.14160	106.27541
19400.00000	106.17955	-206.68270	106.17955
19450.00000	106.13763	-209.55505	106.13763
19500.00000	106.09652	-212.07904	106.09652
19550.00000	106.06628	-214.79915	106.06628
19600.00000	106.01319	-217.53309	106.01319
19650.00000	105.95418	-220.22069	105.95418
19700.00000	105.92835	-222.94590	105.92835
19750.00000	105.88905	-225.43261	105.88905
19800.00000	105.88097	-227.90993	105.88097
19850.00000	105.82869	-230.82459	105.82869
19900.00000	105.79935	-233.36804	105.79935
19950.00000	105.74788	-235.88729	105.74788
20000.00000	105.69435	-238.98131	105.69435
20050.00000	105.66281	-241.47015	105.66281
20100.00000	105.62551	-244.23181	105.62551
20150.00000	105.58851	-246.97804	105.58851
20200.00000	105.54135	-249.63231	105.54135
20250.00000	105.51568	-251.99917	105.51568
20300.00000	105.47987	-254.59781	105.47987
20350.00000	105.43842	-257.07083	105.43842
20400.00000	105.38918	-259.55657	105.38918
20450.00000	105.34875	-262.14384	105.34875
20500.00000	105.31696	-264.75296	105.31696
20550.00000	105.29086	-267.42389	105.29086
20600.00000	105.27593	-269.88496	105.27593
20650.00000	105.25943	-272.48777	105.25943
20700.00000	105.25259	-274.92070	105.25259
20750.00000	105.20301	-277.51019	105.20301
20800.00000	105.18835	-280.18700	105.18835
20850.00000	105.16570	-282.86078	105.16570
20900.00000	105.14651	-285.46258	105.14651
20950.00000	105.13626	-288.07205	105.13626
21000.00000	105.14485	-290.93799	105.14485
21050.00000	105.12189	-293.71026	105.12189
21100.00000	105.12267	-296.31452	105.12267
21150.00000	105.08529	-298.92087	105.08529
21200.00000	105.05896	-301.62086	105.05896
21250.00000	105.00608	-304.27078	105.00608
21300.00000	104.96559	-307.37146	104.96559
21350.00000	104.92938	-310.19371	104.92938
21400.00000	104.86141	-313.19668	104.86141
21450.00000	104.88219	-315.89371	104.88219
21500.00000	104.87506	-318.55705	104.87506
21550.00000	104.82142	-321.30815	104.82142
21600.00000	104.78128	-324.35581	104.78128
21650.00000	104.75158	-327.00925	104.75158
21700.00000	104.65499	-330.25478	104.65499
21750.00000	104.62092	-333.21022	104.62092
21800.00000	104.54405	-336.43313	104.54405
21850.00000	104.50196	-339.29259	104.50196
21900.00000	104.41050	-342.14211	104.41050
21950.00000	104.35375	-345.02522	104.35375
22000.00000	104.18500	-347.71862	104.18500
22050.00000	104.08983	-350.27888	104.08983
22100.00000	104.01132	-353.08588	104.01132
22150.00000	103.92614	-355.94893	103.92614
22200.00000	103.82866	-358.62700	103.82866
22250.00000	103.78666	-361.62524	103.78666
22300.00000	103.70826	-364.45765	103.70826
22350.00000	103.58416	-367.56797	103.58416
22400.00000	103.47505	-370.83093	103.47505
22450.00000	103.33953	-373.63310	103.33953
22500.00000	103.17041	-376.60051	103.17041
22550.00000	103.05057	-379.34805	103.05057
22600.00000	102.85773	-382.06054	102.85773
22650.00000	102.71557	-384.63816	102.71557
22700.00000	102.55066	-387.23046	102.55066
22750.00000	102.39217	-390.01575	102.39217
22800.00000	102.23518	-392.50670	102.23518
22850.00000	102.05206	-395.08932	102.05206
22900.00000	101.90483	-397.16433	101.90483
22950.00000	101.73243	-399.39547	101.73243
23000.00000	101.56444	-401.52911	101.56444
23050.00000	101.35261	-403.93334	101.35261
23100.00000	101.21324	-406.46570	101.21324
23150.00000	100.99298	-408.47040	100.99298
23200.00000	100.88947	-410.95867	100.88947
23250.00000	100.77737	-412.83787	100.77737
23300.00000	100.69345	-415.09058	100.69345
23350.00000	100.49486	-416.85503	100.49486
23400.00000	100.35569	-418.81098	100.35569
23450.00000	100.21545	-420.46794	100.21545
23500.00000	100.20059	-422.47595	100.20059
23550.00000	100.00327	-424.59113	100.00327
23600.00000	99.95330	-426.82822	99.95330
23650.00000	99.78275	-428.62352	99.78275
23700.00000	99.75904	-430.35419	99.75904
23750.00000	99.69457	-432.65524	99.69457
23800.00000	99.58363	-434.63291	99.58363
23850.00000	99.54269	-437.09053	99.54269
23900.00000	99.43628	-438.89481	99.43628
23950.00000	99.30557	-441.31514	99.30557
24000.00000	99.34887	-443.49583	99.34887
24050.00000	99.18767	-445.83177	99.18767
24100.00000	99.11822	-447.77501	99.11822
24150.00000	99.02081	-449.94984	99.02081
24200.00000	98.99153	-453.06255	98.99153
24250.00000	98.90063	-455.35789	98.90063
24300.00000	98.79738	-457.88446	98.79738
24350.00000	98.73084	-460.16664	98.73084
24400.00000	98.63881	-463.02766	98.63881
24450.00000	98.47147	-464.82707	98.47147
24500.00000	98.37000	-468.44675	98.37000
24550.00000	98.21678	-471.17521	98.21678
24600.00000	98.14294	-473.71988	98.14294
24650.00000	97.94303	-476.17362	97.94303
24700.00000	97.85587	-478.90013	97.85587
24750.00000	97.70545	-481.59449	97.70545
24800.00000	97.54415	-483.84393	97.54415
24850.00000	97.35265	-486.74202	97.35265
24900.00000	97.08199	-488.85561	97.08199
24950.00000	96.97702	-491.27307	96.97702
25000.00000	96.75009	-494.32769	96.75009
25050.00000	96.51851	-495.86887	96.51851
25100.00000	96.26827	-497.89579	96.26827
25150.00000	96.04743	-500.28385	96.04743
25200.00000	95.80707	-502.31323	95.80707
25250.00000	95.50589	-504.78586	95.50589
25300.00000	95.21326	-507.10066	95.21326
25350.00000	95.07279	-509.53747	95.07279
25400.00000	94.79731	-511.47123	94.79731
25450.00000	94.55637	-513.47595	94.55637
25500.00000	94.28173	-514.34545	94.28173
25550.00000	94.01677	-516.88349	94.01677
25600.00000	93.79273	-517.99700	93.79273
25650.00000	93.48276	-520.02209	93.48276
25700.00000	93.32424	-521.28741	93.32424
25750.00000	93.08419	-523.36613	93.08419
25800.00000	92.87766	-523.77824	92.87766
25850.00000	92.66920	-525.22595	92.66920
25900.00000	92.38117	-526.98797	92.38117
25950.00000	92.22114	-527.76590	92.22114
26000.00000	92.05934	-528.88061	92.05934
26050.00000	91.89020	-530.98785	91.89020
26100.00000	91.67459	-531.69827	91.67459
26150.00000	91.44049	-533.59233	91.44049
26200.00000	91.20777	-534.72411	91.20777
26250.00000	91.07994	-536.10825	91.07994
26300.00000	90.78957	-537.91411	90.78957
26350.00000	90.66232	-539.23335	90.66232
26400.00000	90.56472	-540.58376	90.56472
26450.00000	90.21741	-542.59224	90.21741
26500.00000	90.00060	-543.84062	90.00060
26550.00000	89.89409	-544.09037	89.89409
26600.00000	89.54918	-546.37116	89.54918
26650.00000	89.44043	-548.05832	89.44043
26700.00000	89.15256	-549.56582	89.15256
26750.00000	88.86223	-550.63121	88.86223
26800.00000	88.59770	-552.02058	88.59770
26850.00000	88.33986	-551.99560	88.33986
26900.00000	88.00367	-553.67134	88.00367
26950.00000	87.71528	-553.87384	87.71528
27000.00000	87.38971	-554.91869	87.38971
27050.00000	87.22455	-554.92885	87.22455
27100.00000	86.99256	-555.07399	86.99256
27150.00000	86.69347	-555.62921	86.69347
27200.00000	86.57009	-556.12356	86.57009
27250.00000	86.18576	-555.58753	86.18576
27300.00000	85.98532	-556.15332	85.98532
27350.00000	85.85210	-555.49538	85.85210
27400.00000	85.57031	-555.20503	85.57031
27450.00000	85.55153	-555.26210	85.55153
27500.00000	85.27101	-555.12997	85.27101
27550.00000	85.15580	-555.06805	85.15580
27600.00000	85.12001	-554.30776	85.12001
27650.00000	84.85270	-554.21521	84.85270
27700.00000	84.82852	-554.87317	84.82852
27750.00000	84.62536	-553.10526	84.62536
27800.00000	84.67215	-553.41988	84.67215
27850.00000	84.54887	-553.29013	84.54887
27900.00000	84.42633	-552.91961	84.42633
27950.00000	84.53606	-551.42140	84.53606
28000.00000	84.40719	-551.45027	84.40719
28050.00000	84.35650	-550.96069	84.35650
28100.00000	84.46487	-551.26155	84.46487
28150.00000	84.40444	-550.81163	84.40444
28200.00000	84.42735	-549.30464	84.42735
28250.00000	84.31637	-549.45288	84.31637
28300.00000	84.45662	-549.24649	84.45662
28350.00000	84.39433	-548.60609	84.39433
28400.00000	84.53482	-548.73478	84.53482
28450.00000	84.59261	-548.10464	84.59261
28500.00000	84.65391	-548.52534	84.65391
28550.00000	84.66421	-548.11815	84.66421
28600.00000	84.91479	-548.09258	84.91479
28650.00000	85.03285	-547.96061	85.03285
28700.00000	85.15764	-547.03733	85.15764
28750.00000	85.24153	-547.38286	85.24153
28800.00000	85.32564	-547.62858	85.32564
28850.00000	85.46197	-547.49766	85.46197
28900.00000	85.53383	-547.36086	85.53383
28950.00000	85.72617	-547.14202	85.72617
29000.00000	86.08387	-546.93587	86.08387
29050.00000	86.19028	-547.47919	86.19028
29100.00000	86.30705	-547.70902	86.30705
29150.00000	86.52058	-548.63105	86.52058
29200.00000	86.72361	-548.22501	86.72361
29250.00000	86.83989	-548.58680	86.83989
29300.00000	87.14378	-549.19648	87.14378
29350.00000	87.16031	-549.61745	87.16031
29400.00000	87.34461	-549.33422	87.34461
29450.00000	87.68193	-550.63574	87.68193
29500.00000	88.01964	-551.53401	88.01964
29550.00000	88.12538	-551.28193	88.12538
29600.00000	88.39702	-552.92155	88.39702
29650.00000	88.63714	-553.39392	88.63714
29700.00000	88.86097	-553.74170	88.86097
29750.00000	89.03581	-554.69777	89.03581
29800.00000	89.26587	-555.57422	89.26587
29850.00000	89.51104	-556.60318	89.51104
29900.00000	89.73583	-556.99788	89.73583
29950.00000	89.92371	-558.81901	89.92371
30000.00000	90.17374	-559.66004	90.17374
30050.00000	90.39887	-560.24408	90.39887
30100.00000	90.65605	-561.53087	90.65605
30150.00000	90.83737	-562.51961	90.83737
30200.00000	91.10679	-563.64281	91.10679
30250.00000	91.33332	-565.22968	91.33332
30300.00000	91.57828	-566.89453	91.57828
30350.00000	91.82803	-568.51924	91.82803
30400.00000	92.04563	-569.90880	92.04563
30450.00000	92.24347	-571.11821	92.24347
30500.00000	92.49577	-572.69666	92.49577
30550.00000	92.74781	-574.09386	92.74781
30600.00000	92.95558	-575.73982	92.95558
30650.00000	93.22489	-577.04274	93.22489
30700.00000	93.44235	-578.76934	93.44235
30750.00000	93.63679	-580.50006	93.63679
30800.00000	93.80038	-582.06126	93.80038
30850.00000	94.04312	-583.83344	94.04312
30900.00000	94.33209	-585.96069	94.33209
30950.00000	94.47519	-587.65916	94.47519
31000.00000	94.65558	-589.43235	94.65558
31050.00000	94.85190	-591.15464	94.85190
31100.00000	95.10078	-593.19459	95.10078
31150.00000	95.31946	-594.72097	95.31946
31200.00000	95.45880	-596.89181	95.45880
31250.00000	95.73995	-598.82495	95.73995
31300.00000	95.89079	-600.96573	95.89079
31350.00000	96.09209	-602.76966	96.09209
31400.00000	96.29797	-605.17865	96.29797
31450.00000	96.44968	-606.86420	96.44968
31500.00000	96.61757	-609.14516	96.61757
31550.00000	96.77467	-611.26745	96.77467
31600.00000	96.97386	-613.70771	96.97386
31650.00000	97.12614	-615.84648	97.12614
31700.00000	97.27188	-618.02902	97.27188
31750.00000	97.39139	-620.28506	97.39139
31800.00000	97.53293	-622.40886	97.53293
31850.00000	97.65253	-624.85366	97.65253
31900.00000	97.74966	-627.03612	97.74966
31950.00000	97.89807	-629.41876	97.89807
32000.00000	97.96430	-631.41908	97.96430
32050.00000	98.01406	-633.69094	98.01406
32100.00000	98.20037	-635.67240	98.20037
32150.00000	98.28076	-638.00784	98.28076
32200.00000	98.35206	-640.11244	98.35206
32250.00000	98.43262	-642.07278	98.43262
32300.00000	98.49304	-644.05806	98.49304
32350.00000	98.55421	-646.02082	98.55421
32400.00000	98.65885	-648.06693	98.65885
32450.00000	98.68671	-649.88985	98.68671
32500.00000	98.76058	-651.68964	98.76058
32550.00000	98.79807	-653.54070	98.79807
32600.00000	98.92170	-655.49052	98.92170
32650.00000	98.99294	-657.32008	98.99294
32700.00000	99.00633	-658.79303	99.00633
32750.00000	99.06853	-660.47686	99.06853
32800.00000	99.16382	-662.05870	99.16382
32850.00000	99.25606	-663.50700	99.25606
32900.00000	99.32543	-665.00262	99.32543
32950.00000	99.40414	-666.68165	99.40414
33000.00000	99.50857	-668.31016	99.50857
33050.00000	99.55294	-669.68801	99.55294
33100.00000	99.71631	-670.97733	99.71631
33150.00000	99.81937	-672.41738	99.81937
33200.00000	99.87953	-673.87904	99.87953
33250.00000	100.01997	-675.46456	100.01997
33300.00000	100.12552	-676.85438	100.12552
33350.00000	100.28951	-678.29966	100.28951
33400.00000	100.39809	-679.65053	100.39809
33450.00000	100.51522	-681.00248	100.51522
33500.00000	100.70043	-682.19376	100.70043
33550.00000	100.83715	-683.70103	100.83715
33600.00000	101.01448	-685.19766	101.01448
33650.00000	101.15271	-686.66798	101.15271
33700.00000	101.30096	-688.27731	101.30096
33750.00000	101.51623	-689.82928	101.51623
33800.00000	101.63217	-691.37485	101.63217
33850.00000	101.79359	-692.56802	101.79359
33900.00000	101.99054	-694.06666	101.99054
33950.00000	102.16300	-695.63789	102.16300
34000.00000	102.35262	-697.11145	102.35262
34050.00000	102.51890	-698.57313	102.51890
34100.00000	102.73028	-700.18094	102.73028
34150.00000	102.92029	-701.55910	102.92029
34200.00000	103.10612	-702.98002	103.10612
34250.00000	103.32021	-704.51060	103.32021
34300.00000	103.55689	-706.30160	103.55689
34350.00000	103.80699	-707.61749	103.80699
34400.00000	104.08368	-709.10542	104.08368
34450.00000	104.28690	-710.97965	104.28690
34500.00000	104.53884	-712.62248	104.53884
34550.00000	104.81179	-714.61633	104.81179
34600.00000	105.02557	-716.83758	105.02557
34650.00000	105.21984	-719.01205	105.21984
34700.00000	105.38909	-720.72725	105.38909
34750.00000	105.54635	-721.99383	105.54635
34800.00000	105.78290	-723.27481	105.78290
34850.00000	106.09267	-724.29944	106.09267
34900.00000	106.42557	-725.82710	106.42557
34950.00000	106.77440	-727.67826	106.77440
35000.00000	107.11780	-729.31482	107.11780
35050.00000	107.49101	-731.23674	107.49101
35100.00000	107.84221	-733.45212	107.84221
35150.00000	108.22041	-735.74153	108.22041
35200.00000	108.57951	-738.15162	108.57951
35250.00000	108.94936	-740.64909	108.94936
35300.00000	109.30988	-743.25326	109.30988
35350.00000	109.66447	-745.90573	109.66447
35400.00000	110.03479	-748.71040	110.03479
35450.00000	110.41673	-751.84060	110.41673
35500.00000	110.76307	-755.09317	110.76307
35550.00000	111.08711	-758.20329	111.08711
35600.00000	111.41398	-761.66446	111.41398
35650.00000	111.74254	-765.02417	111.74254
35700.00000	112.05656	-768.71359	112.05656
35750.00000	112.34612	-772.30444	112.34612
35800.00000	112.63506	-776.11519	112.63506
35850.00000	112.89903	-779.96480	112.89903
35900.00000	113.15682	-783.85409	113.15682
35950.00000	113.38217	-787.90989	113.38217
36000.00000	113.58055	-791.87054	113.58055
36050.00000	113.76237	-796.08680	113.76237
36100.00000	113.93245	-800.14898	113.93245
36150.00000	114.07149	-804.30008	114.07149
36200.00000	114.19555	-808.43656	114.19555
36250.00000	114.28045	-812.54916	114.28045
36300.00000	114.35836	-816.65118	114.35836
36350.00000	114.42293	-820.59608	114.42293
36400.00000	114.47021	-824.62011	114.47021
36450.00000	114.47464	-828.47845	114.47464
36500.00000	114.47985	-832.28714	114.47985
36550.00000	114.47667	-836.05849	114.47667
36600.00000	114.44812	-839.68460	114.44812
36650.00000	114.39636	-843.19791	114.39636
36700.00000	114.35839	-846.46777	114.35839
36750.00000	114.30439	-849.79340	114.30439
36800.00000	114.25191	-852.94847	114.25191
36850.00000	114.18005	-855.96884	114.18005
36900.00000	114.10939	-858.89818	114.10939
36950.00000	114.04859	-861.57338	114.04859
37000.00000	113.98215	-864.20729	113.98215
37050.00000	113.91266	-866.62284	113.91266
37100.00000	113.87197	-869.07612	113.87197
37150.00000	113.82411	-871.27228	113.82411
37200.00000	113.79057	-873.39037	113.79057
37250.00000	113.76408	-875.38848	113.76408
37300.00000	113.75754	-877.25027	113.75754
37350.00000	113.76191	-879.09145	113.76191
37400.00000	113.78885	-880.88228	113.78885
37450.00000	113.82646	-882.52773	113.82646
37500.00000	113.88204	-884.02162	113.88204
37550.00000	113.98846	-885.55387	113.98846
37600.00000	114.10056	-886.99118	114.10056
37650.00000	114.25656	-888.48983	114.25656
37700.00000	114.43861	-889.72741	114.43861
37750.00000	114.66761	-891.27977	114.66761
37800.00000	114.93776	-892.76781	114.93776
37850.00000	115.25243	-894.46317	115.25243
37900.00000	115.58346	-896.42976	115.58346
37950.00000	115.93730	-898.61415	115.93730
38000.00000	116.35113	-901.10215	116.35113
38050.00000	116.71306	-903.94543	116.71306
38100.00000	117.11401	-907.07598	117.11401
38150.00000	117.48601	-910.49095	117.48601
38200.00000	117.85120	-914.20786	117.85120
38250.00000	118.18817	-918.12885	118.18817
38300.00000	118.51276	-922.25007	118.51276
38350.00000	118.80623	-926.57309	118.80623
38400.00000	119.06505	-931.03347	119.06505
38450.00000	119.28520	-935.65058	119.28520
38500.00000	119.48006	-940.18825	119.48006
38550.00000	119.63921	-944.86403	119.63921
38600.00000	119.77673	-949.47289	119.77673
38650.00000	119.88509	-954.04771	119.88509
38700.00000	119.96851	-958.64933	119.96851
38750.00000	120.04288	-963.18510	120.04288
38800.00000	120.08448	-967.59044	120.08448
38850.00000	120.12759	-972.05346	120.12759
38900.00000	120.14790	-976.43072	120.14790
38950.00000	120.15362	-980.73612	120.15362
39000.00000	120.15668	-985.00314	120.15668
39050.00000	120.15326	-989.28457	120.15326
39100.00000	120.12626	-993.47746	120.12626
39150.00000	120.09164	-997.65811	120.09164
39200.00000	120.04291	-1001.74367	120.04291
39250.00000	119.99096	-1005.68800	119.99096
39300.00000	119.94507	-1009.57431	119.94507
39350.00000	119.89301	-1013.42616	119.89301
39400.00000	119.85780	-1017.28768	119.85780
39450.00000	119.82591	-1021.11011	119.82591
39500.00000	119.78611	-1024.97897	119.78611
39550.00000	119.76145	-1028.86588	119.76145
39600.00000	119.70669	-1032.86609	119.70669
39650.00000	119.65775	-1036.87007	119.65775
39700.00000	119.59314	-1040.92097	119.59314
39750.00000	119.50765	-1044.93210	119.50765
39800.00000	119.40328	-1048.91344	119.40328
39850.00000	119.30105	-1052.90193	119.30105
39900.00000	119.17307	-1056.87126	119.17307
39950.00000	119.04273	-1060.83117	119.04273
40000.00000	118.89293	-1064.64489	118.89293
40050.00000	118.73383	-1068.52138	118.73383
40100.00000	118.56846	-1072.31935	118.56846
40150.00000	118.39075	-1076.06596	118.39075
40200.00000	118.19229	-1079.71188	118.19229
40250.00000	117.99518	-1083.31099	117.99518
40300.00000	117.78356	-1086.71901	117.78356
40350.00000	117.57091	-1090.10611	117.57091
40400.00000	117.33529	-1093.44327	117.33529
40450.00000	117.09864	-1096.66906	117.09864
40500.00000	116.85916	-1099.62203	116.85916
40550.00000	116.61265	-1102.57992	116.61265
40600.00000	116.36686	-1105.30132	116.36686
40650.00000	116.12322	-1107.95314	116.12322
40700.00000	115.87282	-1110.57735	115.87282
40750.00000	115.64933	-1112.89668	115.64933
40800.00000	115.42947	-1115.13860	115.42947
40850.00000	115.22204	-1117.35517	115.22204
40900.00000	115.04248	-1119.32866	115.04248
40950.00000	114.85871	-1121.35794	114.85871
41000.00000	114.72631	-1123.36075	114.72631
41050.00000	114.58249	-1125.28481	114.58249
41100.00000	114.47143	-1127.13423	114.47143
41150.00000	114.39041	-1129.09904	114.39041
41200.00000	114.28966	-1131.17875	114.28966
41250.00000	114.24352	-1133.12065	114.24352
41300.00000	114.20108	-1135.21238	114.20108
41350.00000	114.15743	-1137.24529	114.15743
41400.00000	114.14775	-1139.61213	114.14775
41450.00000	114.12453	-1142.03747	114.12453
41500.00000	114.09663	-1144.39837	114.09663
41550.00000	114.07340	-1146.92547	114.07340
41600.00000	114.03435	-1149.71553	114.03435
41650.00000	113.97704	-1152.50497	113.97704
41700.00000	113.92974	-1155.17272	113.92974
41750.00000	113.85629	-1157.97703	113.85629
41800.00000	113.78282	-1160.82710	113.78282
41850.00000	113.68175	-1163.86947	113.68175
41900.00000	113.58799	-1166.76076	113.58799
41950.00000	113.47443	-1169.64370	113.47443
42000.00000	113.35152	-1172.65987	113.35152
42050.00000	113.20466	-1175.51618	113.20466
42100.00000	113.05194	-1178.18752	113.05194
42150.00000	112.88498	-1180.89957	112.88498
42200.00000	112.70229	-1183.56552	112.70229
42250.00000	112.51523	-1186.10186	112.51523
42300.00000	112.33320	-1188.44907	112.33320
42350.00000	112.12119	-1190.91812	112.12119
42400.00000	111.93706	-1193.03807	111.93706
42450.00000	111.76033	-1195.29120	111.76033
42500.00000	111.53806	-1197.30494	111.53806
42550.00000	111.35142	-1199.26062	111.35142
42600.00000	111.13952	-1201.20472	111.13952
42650.00000	110.94899	-1203.00755	110.94899
42700.00000	110.77377	-1204.62096	110.77377
42750.00000	110.61713	-1206.63592	110.61713
42800.00000	110.43840	-1207.94251	110.43840
42850.00000	110.27374	-1209.75131	110.27374
42900.00000	110.16828	-1211.45469	110.16828
42950.00000	109.97297	-1212.83717	109.97297
43000.00000	109.83603	-1214.11666	109.83603
43050.00000	109.72551	-1215.60487	109.72551
43100.00000	109.59662	-1217.21380	109.59662
43150.00000	109.48325	-1218.15206	109.48325
43200.00000	109.35839	-1219.63025	109.35839
43250.00000	109.24711	-1220.82893	109.24711
43300.00000	109.15059	-1221.78373	109.15059
43350.00000	109.04817	-1222.74632	109.04817
43400.00000	108.98040	-1224.01444	108.98040
43450.00000	108.90824	-1225.12889	108.90824
43500.00000	108.81433	-1225.73406	108.81433
43550.00000	108.76939	-1226.74251	108.76939
43600.00000	108.67791	-1227.50096	108.67791
43650.00000	108.61537	-1228.40756	108.61537
43700.00000	108.66408	-1228.78766	108.66408
43750.00000	108.68226	-1229.96719	108.68226
43800.00000	108.68065	-1230.37608	108.68065
43850.00000	108.69704	-1231.12303	108.69704
43900.00000	108.75579	-1231.86305	108.75579
43950.00000	108.79962	-1232.76781	108.79962
44000.00000	108.88997	-1233.04280	108.88997
44050.00000	109.05816	-1233.78497	109.05816
44100.00000	109.14596	-1234.52746	109.14596
44150.00000	109.34366	-1235.08991	109.34366
44200.00000	109.49592	-1236.21319	109.49592
44250.00000	109.67498	-1237.06231	109.67498
44300.00000	109.93933	-1237.97184	109.93933
44350.00000	110.18271	-1239.26704	110.18271
44400.00000	110.42704	-1240.33249	110.42704
44450.00000	110.66534	-1241.66413	110.66534
44500.00000	110.93954	-1242.65820	110.93954
44550.00000	111.18580	-1244.24813	111.18580
44600.00000	111.53132	-1246.09792	111.53132
44650.00000	111.79872	-1247.86910	111.79872
44700.00000	112.15088	-1249.49443	112.15088
44750.00000	112.45192	-1251.77250	112.45192
44800.00000	112.76376	-1253.81208	112.76376
44850.00000	113.11231	-1256.24204	113.11231
44900.00000	113.42132	-1258.91603	113.42132
44950.00000	113.79680	-1261.61560	113.79680
45000.00000	114.10752	-1264.38913	114.10752
45050.00000	114.46710	-1267.45144	114.46710
45100.00000	114.79791	-1270.62757	114.79791
45150.00000	115.14698	-1274.19033	115.14698
45200.00000	115.46872	-1277.95578	115.46872
45250.00000	115.78967	-1281.90477	115.78967
45300.00000	116.08632	-1286.00821	116.08632
45350.00000	116.32372	-1290.28965	116.32372
45400.00000	116.51700	-1294.57828	116.51700
45450.00000	116.75723	-1299.02587	116.75723
45500.00000	116.89346	-1303.53395	116.89346
45550.00000	117.06377	-1307.89698	117.06377
45600.00000	117.17241	-1312.53554	117.17241
45650.00000	117.25408	-1317.06521	117.25408
45700.00000	117.32989	-1321.59614	117.32989
45750.00000	117.34966	-1326.27101	117.34966
45800.00000	117.36851	-1330.94679	117.36851
45850.00000	117.36652	-1335.60940	117.36652
45900.00000	117.31655	-1340.17567	117.31655
45950.00000	117.26402	-1344.82965	117.26402
46000.00000	117.16366	-1349.16305	117.16366
46050.00000	117.05562	-1353.45435	117.05562
46100.00000	116.92331	-1357.53209	116.92331
46150.00000	116.78321	-1361.60856	116.78321
46200.00000	116.64225	-1365.55018	116.64225
46250.00000	116.49344	-1369.23085	116.49344
46300.00000	116.39515	-1372.91771	116.39515
46350.00000	116.22891	-1376.52164	116.22891
46400.00000	116.06065	-1379.99364	116.06065
46450.00000	115.93092	-1383.10501	115.93092
46500.00000	115.76361	-1386.79599	115.76361
46550.00000	115.63505	-1390.15674	115.63505
46600.00000	115.49105	-1393.22716	115.49105
46650.00000	115.36365	-1396.19484	115.36365
46700.00000	115.22521	-1399.50137	115.22521
46750.00000	115.11914	-1402.57396	115.11914
46800.00000	114.98819	-1405.72321	114.98819
46850.00000	114.82779	-1409.14372	114.82779
46900.00000	114.67269	-1411.91001	114.67269
46950.00000	114.57765	-1414.65825	114.57765
47000.00000	114.44451	-1418.37337	114.44451
47050.00000	114.34823	-1421.12897	114.34823
47100.00000	114.21719	-1423.96003	114.21719
47150.00000	114.10722	-1426.84835	114.10722
47200.00000	113.99367	-1430.00612	113.99367
47250.00000	113.80084	-1432.64438	113.80084
47300.00000	113.74495	-1435.64038	113.74495
47350.00000	113.70858	-1438.63352	113.70858
47400.00000	113.57981	-1441.14523	113.57981
47450.00000	113.46063	-1444.24418	113.46063
47500.00000	113.44572	-1446.82907	113.44572
47550.00000	113.40715	-1450.15580	113.40715
47600.00000	113.24221	-1453.53798	113.24221
47650.00000	113.15602	-1456.34852	113.15602
47700.00000	113.13180	-1459.97534	113.13180
47750.00000	112.99107	-1463.24259	112.99107
47800.00000	112.91971	-1466.63507	112.91971
47850.00000	112.83404	-1470.10084	112.83404
47900.00000	112.66905	-1473.33155	112.66905
47950.00000	112.60299	-1476.97236	112.60299
48000.00000	112.39545	-1480.67883	112.39545
48050.00000	112.31529	-1483.70911	112.31529
48100.00000	112.14206	-1487.88017	112.14206
48150.00000	111.99649	-1491.12941	111.99649
48200.00000	111.79416	-1495.26533	111.79416
48250.00000	111.54866	-1498.64245	111.54866
48300.00000	111.40177	-1502.00642	111.40177
48350.00000	111.21018	-1505.76919	111.21018
48400.00000	110.87345	-1509.75047	110.87345
48450.00000	110.57615	-1513.71678	110.57615
48500.00000	110.29454	-1517.11251	110.29454
48550.00000	109.91784	-1520.15931	109.91784
48600.00000	109.55614	-1524.41089	109.55614
48650.00000	109.14251	-1527.00074	109.14251
48700.00000	108.73382	-1530.28307	108.73382
48750.00000	108.37228	-1533.76861	108.37228
48800.00000	107.86108	-1535.59671	107.86108
48850.00000	107.37150	-1538.93239	107.37150
48900.00000	106.98707	-1540.69810	106.98707
48950.00000	106.44477	-1543.15427	106.44477
49000.00000	105.98445	-1545.13755	105.98445
49050.00000	105.57091	-1546.75006	105.57091
49100.00000	105.10070	-1547.72104	105.10070
49150.00000	104.65481	-1550.12782	104.65481
49200.00000	104.13406	-1549.86147	104.13406
49250.00000	103.91769	-1550.36284	103.91769
49300.00000	103.45153	-1549.81931	103.45153
49350.00000	103.04867	-1550.55554	103.04867
49400.00000	102.62643	-1551.96444	102.62643
49450.00000	102.42269	-1551.57343	102.42269
49500.00000	102.20588	-1550.73571	102.20588
49550.00000	101.83562	-1550.66312	101.83562
49600.00000	101.72093	-1550.53693	101.72093
49650.00000	101.79992	-1551.28535	101.79992
49700.00000	101.45727	-1550.74593	101.45727
49750.00000	101.39822	-1549.18228	101.39822
49800.00000	101.35366	-1549.68812	101.35366
49850.00000	101.42722	-1190.96868	101.42722
49900.00000	101.48775	-1189.81779	101.48775
49950.00000	101.36748	-829.65318	101.36748
50000.00000	101.57080	-830.26159	101.57080
50050.00000	101.67544	-830.84022	101.67544
50100.00000	101.61448	-831.37877	101.61448
50150.00000	101.93128	-832.54649	101.93128
50200.00000	102.01722	-833.76342	102.01722
50250.00000	102.05167	-835.55556	102.05167
50300.00000	102.37480	-836.26735	102.37480
50350.00000	102.33609	-836.99397	102.33609
50400.00000	102.45684	-839.73502	102.45684
50450.00000	102.57104	-841.12759	102.57104
50500.00000	102.65787	-842.51498	102.65787
50550.00000	102.69538	-845.63041	102.69538
50600.00000	102.87089	-846.87390	102.87089
50650.00000	103.04295	-849.18345	103.04295
50700.00000	102.93924	-852.00115	102.93924
50750.00000	102.97660	-854.50854	102.97660
50800.00000	103.07240	-857.08324	103.07240
50850.00000	103.07180	-859.58575	103.07180
50900.00000	103.02573	-862.94263	103.02573
50950.00000	103.12913	-866.26945	103.12913
51000.00000	103.19282	-869.10694	103.19282
51050.00000	103.04520	-871.69475	103.04520
51100.00000	102.86018	-874.72731	102.86018
51150.00000	102.75626	-878.54868	102.75626
51200.00000	102.57634	-880.88143	102.57634
51250.00000	102.49399	-883.27120	102.49399
51300.00000	102.18822	-887.10389	102.18822
51350.00000	101.98504	-887.59994	101.98504
51400.00000	101.70369	-891.08358	101.70369
51450.00000	101.34997	-892.36293	101.34997
51500.00000	101.10411	-894.24050	101.10411
51550.00000	100.74335	-896.70711	100.74335
51600.00000	100.42172	-898.25530	100.42172
51650.00000	100.06808	-898.68118	100.06808
51700.00000	99.67468	-899.54310	99.67468
51750.00000	99.48942	-900.51179	99.48942
51800.00000	99.44707	-900.15437	99.44707
51850.00000	99.21209	-901.45946	99.21209
51900.00000	99.03312	-900.85647	99.03312
51950.00000	98.65431	-900.59320	98.65431
52000.00000	98.69294	-900.74533	98.69294
52050.00000	98.64965	-900.48439	98.64965
52100.00000	98.43743	-899.99758	98.43743
52150.00000	98.51215	-899.99751	98.51215
52200.00000	98.71831	-900.00808	98.71831
52250.00000	98.59492	-900.29457	98.59492
52300.00000	98.42526	-899.61430	98.42526
52350.00000	98.87009	-900.66518	98.87009
52400.00000	98.80050	-900.49147	98.80050
52450.00000	98.96518	-901.03706	98.96518
52500.00000	99.06708	-902.10219	99.06708
52550.00000	99.21479	-901.96429	99.21479
52600.00000	99.12859	-902.45287	99.12859
52650.00000	99.58245	-903.51867	99.58245
52700.00000	99.67079	-903.90975	99.67079
52750.00000	99.78737	-904.41968	99.78737
52800.00000	100.08927	-906.05615	100.08927
52850.00000	100.19846	-906.92657	100.19846
52900.00000	100.37323	-908.57663	100.37323
52950.00000	100.47839	-909.69652	100.47839
53000.00000	100.72155	-912.12577	100.72155
53050.00000	100.82157	-914.08000	100.82157
53100.00000	101.18284	-915.38587	101.18284
53150.00000	101.27919	-916.47635	101.27919
53200.00000	101.37816	-918.78226	101.37816
53250.00000	101.53219	-920.50170	101.53219
53300.00000	101.72423	-922.96970	101.72423
53350.00000	101.65856	-924.90216	101.65856
53400.00000	101.89642	-926.30942	101.89642
53450.00000	102.02327	-929.41158	102.02327
53500.00000	102.09494	-930.97580	102.09494
53550.00000	102.31154	-933.21442	102.31154
53600.00000	102.37831	-936.13363	102.37831
53650.00000	102.36888	-937.36484	102.36888
53700.00000	102.42811	-940.28500	102.42811
53750.00000	102.50924	-943.39509	102.50924
53800.00000	102.60174	-944.86599	102.60174
53850.00000	102.40768	-946.66817	102.40768
53900.00000	102.53483	-947.78225	102.53483
53950.00000	102.36432	-951.21307	102.36432
54000.00000	102.55250	-952.71230	102.55250
54050.00000	102.55128	-954.42690	102.55128
54100.00000	102.54164	-956.65409	102.54164
54150.00000	102.58418	-958.30526	102.58418
54200.00000	102.44112	-958.99900	102.44112
54250.00000	102.56270	-961.51468	102.56270
54300.00000	102.58443	-962.28070	102.58443
54350.00000	102.66131	-963.54189	102.66131
54400.00000	102.80972	-964.42725	102.80972
54450.00000	102.95791	-965.76369	102.95791
54500.00000	102.86735	-966.67245	102.86735
54550.00000	102.90482	-967.99463	102.90482
54600.00000	103.02109	-968.47101	103.02109
54650.00000	103.25693	-970.48950	103.25693
54700.00000	103.38996	-971.71530	103.38996
54750.00000	103.70668	-973.21150	103.70668
54800.00000	103.88139	-974.50877	103.88139
54850.00000	103.95092	-975.84483	103.95092
54900.00000	104.38475	-977.47488	104.38475
54950.00000	104.59595	-979.02356	104.59595
55000.00000	104.95308	-980.96929	104.95308
55050.00000	105.11715	-982.95211	105.11715
55100.00000	105.46186	-984.49820	105.46186
55150.00000	105.67581	-987.20473	105.67581
55200.00000	105.95720	-989.68303	105.95720
55250.00000	106.19551	-992.02509	106.19551
55300.00000	106.61618	-995.12874	106.61618
55350.00000	106.83566	-997.60231	106.83566
55400.00000	107.09215	-1001.01824	107.09215
55450.00000	107.36948	-1003.76708	107.36948
55500.00000	107.61793	-1007.51426	107.61793
55550.00000	107.84737	-1010.30083	107.84737
55600.00000	108.08026	-1013.88384	108.08026
55650.00000	108.31094	-1017.42634	108.31094
55700.00000	108.44653	-1021.33518	108.44653
55750.00000	108.65219	-1024.61573	108.65219
55800.00000	108.86568	-1028.76592	108.86568
55850.00000	109.00007	-1032.63716	109.00007
55900.00000	109.10766	-1036.32543	109.10766
55950.00000	109.20604	-1040.48504	109.20604
56000.00000	109.35958	-1044.07887	109.35958
56050.00000	109.42423	-1047.80905	109.42423
56100.00000	109.45180	-1051.92108	109.45180
56150.00000	109.57130	-1055.82558	109.57130
56200.00000	109.55374	-1059.73177	109.55374
56250.00000	109.59843	-1063.58944	109.59843
56300.00000	109.61550	-1067.52905	109.61550
56350.00000	109.60678	-1071.39159	109.60678
56400.00000	109.59939	-1075.14277	109.59939
56450.00000	109.51538	-1079.05193	109.51538
56500.00000	109.49438	-1082.85879	109.49438
56550.00000	109.45755	-1086.74489	109.45755
56600.00000	109.36094	-1090.23971	109.36094
56650.00000	109.34064	-1094.06691	109.34064
56700.00000	109.20770	-1097.55176	109.20770
56750.00000	109.18432	-1100.96313	109.18432
56800.00000	108.99327	-1104.79861	108.99327
56850.00000	108.89376	-1108.03159	108.89376
56900.00000	108.80821	-1111.66174	108.80821
56950.00000	108.62580	-1114.64601	108.62580
57000.00000	108.48643	-1117.96965	108.48643
57050.00000	108.36510	-1121.45656	108.36510
57100.00000	108.14561	-1124.38795	108.14561
57150.00000	107.94913	-1127.48855	107.94913
57200.00000	107.78555	-1130.08274	107.78555
57250.00000	107.65958	-1133.06569	107.65958
57300.00000	107.47908	-1135.53065	107.47908
57350.00000	107.31685	-1137.86612	107.31685
57400.00000	107.14103	-1140.12986	107.14103
57450.00000	106.91664	-1142.70170	106.91664
57500.00000	106.77160	-1144.97966	106.77160
57550.00000	106.65138	-1147.27752	106.65138
57600.00000	106.54269	-1148.58831	106.54269
57650.00000	106.39976	-1150.74446	106.39976
57700.00000	106.28421	-1152.20284	106.28421
57750.00000	106.26971	-1154.23973	106.26971
57800.00000	106.21096	-1155.84547	106.21096
57850.00000	106.19426	-1157.56126	106.19426
57900.00000	106.18358	-1159.41200	106.18358
57950.00000	106.19895	-1161.23496	106.19895
58000.00000	106.26247	-1162.92823	106.26247
58050.00000	106.36656	-1165.18902	106.36656
58100.00000	106.43123	-1167.63256	106.43123
58150.00000	106.50254	-1169.64844	106.50254
58200.00000	106.58310	-1172.73757	106.58310
58250.00000	106.65118	-1175.60976	106.65118
58300.00000	106.71178	-1178.80487	106.71178
58350.00000	106.72114	-1181.81997	106.72114
58400.00000	106.71363	-1184.96694	106.71363
58450.00000	106.71005	-1188.19298	106.71005
58500.00000	106.60319	-1191.24870	106.60319
58550.00000	106.54954	-1194.34948	106.54954
58600.00000	106.45774	-1197.40604	106.45774
58650.00000	106.35684	-1200.20813	106.35684
58700.00000	106.23342	-1203.03437	106.23342
58750.00000	106.14072	-1205.65005	106.14072
58800.00000	106.09124	-1208.31816	106.09124
58850.00000	105.99800	-1210.82997	105.99800
58900.00000	105.87947	-1213.45585	105.87947
58950.00000	105.80165	-1216.35614	105.80165
59000.00000	105.67391	-1219.17282	105.67391
59050.00000	105.59792	-1221.87977	105.59792
59100.00000	105.41832	-1224.81829	105.41832
59150.00000	105.30130	-1227.60092	105.30130
59200.00000	105.13241	-1230.35967	105.13241
59250.00000	104.89696	-1232.79775	104.89696
59300.00000	104.70452	-1235.28521	104.70452
59350.00000	104.42590	-1237.50397	104.42590
59400.00000	104.26253	-1239.11930	104.26253
59450.00000	103.99807	-1240.76333	103.99807
59500.00000	103.75705	-1242.18244	103.75705
59550.00000	103.58272	-1243.08280	103.58272
59600.00000	103.40722	-1244.03936	103.40722
59650.00000	103.32641	-1244.86341	103.32641
59700.00000	103.23842	-1245.65625	103.23842
59750.00000	103.17593	-1246.59657	103.17593
59800.00000	103.14823	-1247.15344	103.14823
59850.00000	103.18897	-1248.08197	103.18897
59900.00000	103.19833	-1248.87902	103.19833
59950.00000	103.29926	-1249.70995	103.29926
60000.00000	103.37547	-1250.92792	103.37547
60050.00000	103.49674	-1251.93520	103.49674
60100.00000	103.60087	-1253.24127	103.60087
60150.00000	103.71353	-1254.28480	103.71353
60200.00000	103.91004	-1255.94049	103.91004
60250.00000	104.11336	-1257.18514	104.11336
60300.00000	104.32262	-1258.81463	104.32262
60350.00000	104.54684	-1260.67812	104.54684
60400.00000	104.82590	-1263.01580	104.82590
60450.00000	105.07115	-1265.38368	105.07115
60500.00000	105.30149	-1268.08616	105.30149
60550.00000	105.51749	-1271.18934	105.51749
60600.00000	105.68397	-1274.28235	105.68397
60650.00000	105.82383	-1277.51801	105.82383
60700.00000	105.95013	-1281.08974	105.95013
60750.00000	106.02846	-1284.48705	106.02846
60800.00000	106.09434	-1287.68040	106.09434
60850.00000	106.12062	-1291.11172	106.12062
60900.00000	106.12918	-1294.36579	106.12918
60950.00000	106.13729	-1297.35784	106.13729
61000.00000	106.11988	-1300.48066	106.11988
61050.00000	106.13328	-1303.41462	106.13328
61100.00000	106.13197	-1306.30463	106.13197
61150.00000	106.11781	-1309.24815	106.11781
61200.00000	106.11797	-1312.04649	106.11797
61250.00000	106.11102	-1314.78768	106.11102
61300.00000	106.12789	-1317.64748	106.12789
61350.00000	106.12499	-1320.38872	106.12499
61400.00000	106.14087	-1323.16613	106.14087
61450.00000	106.13317	-1325.92409	106.13317
61500.00000	106.15393	-1328.67381	106.15393
61550.00000	106.16193	-1331.62011	106.16193
61600.00000	106.19299	-1334.25867	106.19299
61650.00000	106.20491	-1337.27390	106.20491
61700.00000	106.22041	-1340.17013	106.22041
61750.00000	106.21901	-1343.13496	106.21901
61800.00000	106.22301	-1346.18666	106.22301
61850.00000	106.24594	-1349.15523	106.24594
61900.00000	106.24967	-1352.20792	106.24967
61950.00000	106.24513	-1355.20881	106.24513
62000.00000	106.23314	-1358.45971	106.23314
62050.00000	106.22375	-1361.57288	106.22375
62100.00000	106.17527	-1364.83450	106.17527
62150.00000	106.16191	-1368.11542	106.16191
62200.00000	106.12251	-1371.31599	106.12251
62250.00000	106.06116	-1374.47993	106.06116
62300.00000	105.97134	-1377.78725	105.97134
62350.00000	105.89064	-1381.01761	105.89064
62400.00000	105.78647	-1384.24651	105.78647
62450.00000	105.66077	-1387.18275	105.66077
62500.00000	105.50488	-1390.19249	105.50488
62550.00000	105.36080	-1393.09703	105.36080
62600.00000	105.22622	-1396.06674	105.22622
62650.00000	105.05515	-1398.60974	105.05515
62700.00000	104.90411	-1401.02171	104.90411
62750.00000	104.74162	-1403.39545	104.74162
62800.00000	104.61263	-1405.43020	104.61263
62850.00000	104.49824	-1407.64127	104.49824
62900.00000	104.39914	-1409.67900	104.39914
62950.00000	104.24216	-1411.55230	104.24216
63000.00000	104.20481	-1413.17761	104.20481
63050.00000	104.16187	-1415.00697	104.16187
63100.00000	104.11264	-1416.67706	104.11264
63150.00000	104.08353	-1418.60361	104.08353
63200.00000	104.11229	-1420.44551	104.11229
63250.00000	104.13233	-1422.28208	104.13233
63300.00000	104.25557	-1424.12001	104.25557
63350.00000	104.30231	-1426.07792	104.30231
63400.00000	104.36400	-1428.18219	104.36400
63450.00000	104.43582	-1430.51108	104.43582
63500.00000	104.55630	-1432.71937	104.55630
63550.00000	104.64410	-1435.29328	104.64410
63600.00000	104.78498	-1438.05682	104.78498
63650.00000	104.94282	-1441.06350	104.94282
63700.00000	105.11039	-1443.91146	105.11039
63750.00000	105.22190	-1447.35398	105.22190
63800.00000	105.32834	-1450.72823	105.32834
63850.00000	105.41086	-1454.29237	105.41086
63900.00000	105.43746	-1458.16001	105.43746
63950.00000	105.38696	-1461.90798	105.38696
64000.00000	105.35871	-1465.05536	105.35871
64050.00000	105.28464	-1468.39203	105.28464
64100.00000	105.29170	-1470.93248	105.29170
64150.00000	105.31785	-1473.48197	105.31785
64200.00000	105.46601	-1476.60039	105.46601
64250.00000	105.65523	-1480.23231	105.65523
64300.00000	105.85266	-1484.29730	105.85266
64350.00000	106.00120	-1489.38839	106.00120
64400.00000	106.09012	-1495.15207	106.09012
64450.00000	106.07418	-1501.02077	106.07418
64500.00000	105.88114	-1507.40061	105.88114
64550.00000	105.56454	-1513.51078	105.56454
64600.00000	105.11099	-1519.31887	105.11099
64650.00000	104.50550	-1524.37200	104.50550
64700.00000	103.89191	-1528.85932	103.89191
64750.00000	103.20556	-1531.98558	103.20556
64800.00000	102.43577	-1534.26680	102.43577
64850.00000	101.87201	-1536.19760	101.87201
64900.00000	101.30119	-1536.36544	101.30119
64950.00000	100.76523	-1536.43021	100.76523
65000.00000	100.43726	-1536.77716	100.43726
65050.00000	100.24573	-1536.37610	100.24573
65100.00000	100.06759	-1535.90474	100.06759
65150.00000	99.93822	-1536.01690	99.93822
65200.00000	99.87639	-1536.22717	99.87639
65250.00000	99.96534	-1536.35073	99.96534
65300.00000	99.96071	-1537.73837	99.96071
65350.00000	99.97901	-1538.66900	99.97901
65400.00000	100.09607	-1539.86600	100.09607
65450.00000	100.24698	-1541.23685	100.24698
65500.00000	100.35415	-1543.34958	100.35415
65550.00000	100.54584	-1545.08374	100.54584
65600.00000	100.70938	-1547.46501	100.70938
65650.00000	100.79024	-1550.42136	100.79024
65700.00000	100.89343	-1553.81649	100.89343
65750.00000	100.92473	-1556.88762	100.92473
65800.00000	100.92806	-1560.00241	100.92806
65850.00000	100.84427	-1563.17669	100.84427
65900.00000	100.88440	-1566.24798	100.88440
65950.00000	100.73986	-1569.08925	100.73986
66000.00000	100.69138	-1571.93397	100.69138
66050.00000	100.61722	-1574.99944	100.61722
66100.00000	100.51743	-1577.52639	100.51743
66150.00000	100.45128	-1580.41156	100.45128
66200.00000	100.31110	-1583.55847	100.31110
66250.00000	100.22481	-1586.26463	100.22481
66300.00000	100.10171	-1589.01491	100.10171
66350.00000	99.99004	-1591.69981	99.99004
66400.00000	99.83365	-1594.54258	99.83365
66450.00000	99.72303	-1597.40759	99.72303
66500.00000	99.59009	-1599.88306	99.59009
66550.00000	99.36176	-1602.32000	99.36176
66600.00000	99.20441	-1605.04327	99.20441
66650.00000	98.95980	-1607.38432	98.95980
66700.00000	98.92612	-1608.69030	98.92612
66750.00000	98.77065	-1610.99786	98.77065
66800.00000	98.60005	-1613.27544	98.60005
66850.00000	98.48445	-1615.27553	98.48445
66900.00000	98.46799	-1616.91564	98.46799
66950.00000	98.34643	-1619.17291	98.34643
67000.00000	98.29287	-1621.89958	98.29287
67050.00000	98.11776	-1623.96025	98.11776
67100.00000	97.96946	-1626.39939	97.96946
67150.00000	97.90234	-1628.48642	97.90234
67200.00000	97.71462	-1630.66830	97.71462
67250.00000	97.53609	-1632.33814	97.53609
67300.00000	97.40098	-1634.41524	97.40098
67350.00000	97.17890	-1635.77596	97.17890
67400.00000	97.06276	-1637.60583	97.06276
67450.00000	96.91292	-1638.03537	96.91292
67500.00000	96.79475	-1639.00827	96.79475
67550.00000	96.73006	-1639.89501	96.73006
67600.00000	96.79982	-1639.97799	96.79982
67650.00000	96.78780	-1640.89795	96.78780
67700.00000	96.86723	-1641.46038	96.86723
67750.00000	97.17151	-1642.87909	97.17151
67800.00000	97.32873	-1643.82903	97.32873
67850.00000	97.55535	-1645.58420	97.55535
67900.00000	97.73236	-1646.97622	97.73236
67950.00000	98.04329	-1648.86214	98.04329
68000.00000	98.24681	-1651.19552	98.24681
68050.00000	98.62671	-1654.14542	98.62671
68100.00000	98.84137	-1656.86470	98.84137
68150.00000	99.07144	-1659.73665	99.07144
68200.00000	99.41749	-1662.97482	99.41749
68250.00000	99.61599	-1666.57874	99.61599
68300.00000	99.86393	-1670.74966	99.86393
68350.00000	100.00262	-1674.68325	100.00262
68400.00000	100.17548	-1679.06689	100.17548
68450.00000	100.31405	-1683.55190	100.31405
68500.00000	100.40081	-1688.09918	100.40081
68550.00000	100.38650	-1692.13620	100.38650
68600.00000	100.48096	-1696.77097	100.48096
68650.00000	100.46446	-1701.08937	100.46446
68700.00000	100.43477	-1705.32461	100.43477
68750.00000	100.43265	-1709.69429	100.43265
68800.00000	100.32379	-1714.37187	100.32379
68850.00000	100.27650	-1718.25891	100.27650
68900.00000	100.22199	-1722.61573	100.22199
68950.00000	100.14811	-1726.94304	100.14811
69000.00000	100.05613	-1731.08849	100.05613
69050.00000	99.95465	-1735.72601	99.95465
69100.00000	99.88634	-1740.01217	99.88634
69150.00000	99.76910	-1744.91175	99.76910
69200.00000	99.61602	-1749.25816	99.61602
69250.00000	99.42446	-1753.82238	99.42446
69300.00000	99.24409	-1758.68670	99.24409
69350.00000	99.02585	-1763.48839	99.02585
69400.00000	98.77052	-1768.46232	98.77052
69450.00000	98.46383	-1773.10979	98.46383
69500.00000	98.07484	-1778.32881	98.07484
69550.00000	97.72040	-1783.01228	97.72040
69600.00000	97.26523	-1787.26718	97.26523
69650.00000	96.71777	-1791.25004	96.71777
69700.00000	96.21186	-1795.09970	96.21186
69750.00000	95.68774	-1798.52323	95.68774
69800.00000	95.11487	-1801.82075	95.11487
69850.00000	94.56239	-1804.48189	94.56239
69900.00000	94.03327	-1806.79366	94.03327
69950.00000	93.51149	-1808.58841	93.51149
70000.00000	93.10692	-1810.28977	93.10692
70050.00000	92.64697	-1811.19070	92.64697
70100.00000	92.13532	-1813.16660	92.13532
70150.00000	91.81655	-1815.10485	91.81655
70200.00000	91.53802	-1816.10096	91.53802
70250.00000	91.20733	-1817.47886	91.20733
70300.00000	90.95555	-1819.75882	90.95555
70350.00000	90.57222	-1820.08217	90.57222
70400.00000	90.36370	-1822.08731	90.36370
70450.00000	90.07055	-1823.63902	90.07055
70500.00000	89.70844	-1824.93848	89.70844
70550.00000	89.41029	-1826.61579	89.41029
70600.00000	89.18418	-1827.28933	89.18418
70650.00000	88.81269	-1828.15324	88.81269
70700.00000	88.59718	-1829.82289	88.59718
70750.00000	88.50637	-1828.86273	88.50637
70800.00000	88.19955	-1830.42094	88.19955
70850.00000	88.15973	-1832.91402	88.15973
70900.00000	88.06610	-1832.84570	88.06610
70950.00000	88.13983	-1833.59204	88.13983
71000.00000	87.97730	-1835.35325	87.97730
71050.00000	87.86631	-1836.54460	87.86631
71100.00000	87.95301	-1838.61181	87.95301
71150.00000	88.26516	-1840.32234	88.26516
71200.00000	88.05120	-1843.44902	88.05120
71250.00000	88.07293	-1846.07306	88.07293
71300.00000	88.21789	-1849.44602	88.21789
71350.00000	87.93466	-1852.28883	87.93466
71400.00000	87.89140	-1857.93801	87.89140
71450.00000	87.73610	-1860.72867	87.73610
71500.00000	87.56116	-1865.19564	87.56116
71550.00000	87.13375	-1868.20347	87.13375
71600.00000	86.56658	-1872.67276	86.56658
71650.00000	85.92485	-1875.24050	85.92485
71700.00000	85.66204	-1879.00594	85.66204
71750.00000	85.21303	-1880.64189	85.21303
71800.00000	84.27755	-1885.05370	84.27755
71850.00000	83.90917	-1887.45459	83.90917
71900.00000	83.14354	-1886.47555	83.14354
71950.00000	82.22363	-1890.84946	82.22363
72000.00000	81.61615	-1887.77869	81.61615
72050.00000	80.15564	-1886.64184	80.15564
72100.00000	79.49318	-1887.02474	79.49318
72150.00000	79.23786	-1878.96930	79.23786
72200.00000	79.07921	-1874.70242	79.07921
72250.00000	79.44844	-1871.67246	79.44844
72300.00000	79.91571	-1866.10857	79.91571
72350.00000	80.18734	-1863.56138	80.18734
72400.00000	81.06000	-1865.33561	81.06000
72450.00000	81.05227	-1864.18593	81.05227
72500.00000	81.34752	-1867.03016	81.34752
72550.00000	82.04649	-1870.03942	82.04649
72600.00000	81.83581	-1870.02327	81.83581
72650.00000	81.94990	-1874.70984	81.94990
72700.00000	82.19386	-1878.26162	82.19386
72750.00000	81.82694	-1877.07110	81.82694
72800.00000	82.01177	-1878.60071	82.01177
72850.00000	82.43983	-1878.13032	82.43983
72900.00000	82.02732	-1878.93515	82.02732
72950.00000	82.70400	-1881.28391	82.70400
73000.00000	83.16835	-1879.53126	83.16835
73050.00000	83.17465	-1881.20313	83.17465
73100.00000	83.74797	-1884.61925	83.74797
73150.00000	84.15231	-1883.06599	84.15231
73200.00000	84.24536	-1891.16277	84.24536
73250.00000	84.77039	-1894.88472	84.77039
73300.00000	85.09380	-1896.21849	85.09380
73350.00000	85.60348	-1905.99282	85.60348
73400.00000	86.16057	-1906.56199	86.16057
73450.00000	85.49644	-1912.47787	85.49644
73500.00000	85.90819	-1922.29288	85.90819
73550.00000	86.38426	-1925.86797	86.38426
73600.00000	85.95439	-1933.40342	85.95439
73650.00000	86.23812	-1938.32116	86.23812
73700.00000	85.85542	-1941.69684	85.85542
73750.00000	85.93964	-1951.54066	85.93964
73800.00000	85.81426	-1953.72752	85.81426
73850.00000	85.06333	-1961.89101	85.06333
73900.00000	85.11639	-1970.74304	85.11639
73950.00000	85.07778	-1973.18075	85.07778
74000.00000	84.36720	-1983.58975	84.36720
74050.00000	84.60740	-1989.93390	84.60740
74100.00000	83.84862	-1994.81508	83.84862
74150.00000	83.64839	-2009.24500	83.64839
74200.00000	83.22572	-2015.27117	83.22572
74250.00000	81.96444	-2026.33408	81.96444
74300.00000	82.89049	-2050.77669	82.89049
74350.00000	81.23335	-2057.56912	81.23335
74400.00000	78.45357	-2117.09132	78.45357
74450.00000	75.45871	-2285.40166	75.45871
74500.00000	77.62590	-2351.49259	77.62590
74550.00000	77.29308	-2391.28363	77.29308
74600.00000	75.82230	-2409.60832	75.82230
74650.00000	74.80241	-2426.52624	74.80241
74700.00000	75.50090	-2436.71748	75.50090
74750.00000	74.14900	-2446.56369	74.14900
74800.00000	73.25379	-2464.76113	73.25379
74850.00000	74.25166	-2468.72091	74.25166
74900.00000	73.34548	-2490.46412	73.34548
74950.00000	73.68844	-2505.96255	73.68844
75000.00000	73.43250	-2511.92595	73.43250
75050.00000	74.25741	-2523.28513	74.25741
75100.00000	74.90321	-2524.57387	74.90321
75150.00000	74.31320	-2542.35271	74.31320
75200.00000	76.14483	-2558.34542	76.14483
75250.00000	76.21218	-2554.36954	76.21218
75300.00000	76.36471	-2563.62637	76.36471
75350.00000	77.56461	-2574.70119	77.56461
75400.00000	76.63981	-2573.72192	76.63981
75450.00000	78.74991	-2582.59640	78.74991
75500.00000	78.67413	-2589.45497	78.67413
75550.00000	78.84924	-2595.01077	78.84924
75600.00000	80.23643	-2601.18228	80.23643
75650.00000	79.59291	-2601.16486	79.59291
75700.00000	79.94320	-2609.95096	79.94320
75750.00000	80.74948	-2608.97802	80.74948
75800.00000	80.57521	-2616.59532	80.57521
75850.00000	81.30897	-2620.33417	81.30897
75900.00000	81.12535	-2625.10058	81.12535
75950.00000	81.85067	-2628.89084	81.85067
76000.00000	82.13548	-2632.70473	82.13548
76050.00000	81.64355	-2641.18807	81.64355
76100.00000	82.96967	-2642.36314	82.96967
76150.00000	82.37376	-2640.44717	82.37376
76200.00000	82.94935	-2646.25152	82.94935
76250.00000	83.19849	-2650.49164	83.19849
76300.00000	82.79135	-2654.08610	82.79135
76350.00000	83.43008	-2661.98728	83.43008
76400.00000	83.42220	-2658.72361	83.42220
76450.00000	83.10269	-2666.83567	83.10269
76500.00000	83.97437	-2666.67898	83.97437
76550.00000	83.74321	-2666.62032	83.74321
76600.00000	83.94266	-2678.40935	83.94266
76650.00000	83.94092	-2676.23697	83.94092
76700.00000	83.67585	-2680.04012	83.67585
76750.00000	84.32815	-2686.81342	84.32815
76800.00000	84.59104	-2684.70304	84.59104
76850.00000	83.62877	-2690.72679	83.62877
76900.00000	85.11059	-2691.37947	85.11059
76950.00000	83.94982	-2687.33814	83.94982
77000.00000	84.48412	-2698.12109	84.48412
77050.00000	85.29283	-2694.88997	85.29283
77100.00000	84.06135	-2700.09987	84.06135
77150.00000	86.05385	-2705.07526	86.05385
77200.00000	85.39833	-2703.60449	85.39833
77250.00000	85.66783	-2711.04827	85.66783
77300.00000	86.58112	-2709.78455	86.58112
77350.00000	85.73614	-2714.67359	85.73614
77400.00000	86.77956	-2721.19541	86.77956
77450.00000	86.93894	-2717.59465	86.93894
77500.00000	86.32407	-2724.47116	86.32407
77550.00000	88.01666	-2730.68908	88.01666
77600.00000	87.15084	-2731.24722	87.15084
77650.00000	87.28942	-2741.97758	87.28942
77700.00000	87.96061	-2738.58790	87.96061
77750.00000	87.16994	-2745.36873	87.16994
77800.00000	88.14743	-2752.12373	88.14743
77850.00000	87.94649	-2750.17147	87.94649
77900.00000	87.48401	-2761.07682	87.48401
77950.00000	88.60496	-2762.33970	88.60496
78000.00000	87.48293	-2765.25395	87.48293
78050.00000	88.16384	-2776.04539	88.16384
78100.00000	88.23998	-2774.44160	88.23998
78150.00000	87.22447	-2782.92837	87.22447
78200.00000	88.61764	-2786.27169	88.61764
78250.00000	87.16731	-2786.87821	87.16731
78300.00000	87.79226	-2798.46289	87.79226
78350.00000	87.72964	-2795.54782	87.72964
78400.00000	86.68514	-2801.14134	86.68514
78450.00000	87.50702	-2808.61375	87.50702
78500.00000	86.58304	-2804.86259	86.58304
78550.00000	86.53968	-2815.58816	86.53968
78600.00000	86.94203	-2814.27956	86.94203
78650.00000	85.45745	-2815.81086	85.45745
78700.00000	86.50804	-2824.29063	86.50804
78750.00000	85.99036	-2820.27919	85.99036
78800.00000	85.03802	-2830.27285	85.03802
78850.00000	85.95127	-2827.51180	85.95127
78900.00000	84.76469	-2828.66430	84.76469
78950.00000	85.15568	-2839.11140	85.15568
79000.00000	85.31279	-2833.54860	85.31279
79050.00000	84.45368	-2841.37864	84.45368
79100.00000	85.31991	-2842.58334	85.31991
79150.00000	84.54079	-2840.67347	84.54079
79200.00000	84.66274	-2848.43155	84.66274
79250.00000	84.93459	-2847.22912	84.93459
79300.00000	84.17188	-2852.64580	84.17188
79350.00000	84.79823	-2856.53577	84.79823
79400.00000	84.22266	-2854.64204	84.22266
79450.00000	84.21451	-2863.95376	84.21451
79500.00000	84.81653	-2863.27386	84.81653
79550.00000	83.83421	-2866.85446	83.83421
79600.00000	84.63718	-2872.29530	84.63718
79650.00000	84.03704	-2871.06576	84.03704
79700.00000	83.88124	-2880.10309	83.88124
79750.00000	84.25602	-2879.85138	84.25602
79800.00000	83.23363	-2885.61749	83.23363
79850.00000	83.50792	-2889.77344	83.50792
79900.00000	83.05764	-2888.04235	83.05764
79950.00000	82.30238	-2897.05181	82.30238
80000.00000	82.82698	-2894.70518	82.82698
80050.00000	82.02624	-2898.07894	82.02624
80100.00000	82.38216	-2904.23390	82.38216
80150.00000	81.55588	-2903.39143	81.55588
80200.00000	81.55815	-2909.22048	81.55815
80250.00000	81.77177	-2911.41764	81.77177
80300.00000	80.69351	-2912.88160	80.69351
80350.00000	80.72091	-2922.28742	80.72091
80400.00000	79.74976	-2922.98582	79.74976
80450.00000	79.36604	-2928.77477	79.36604
80500.00000	78.96871	-2926.05021	78.96871
80550.00000	77.49430	-2927.75743	77.49430
80600.00000	78.08308	-2929.98872	78.08308
80650.00000	77.49683	-2923.77874	77.49683
80700.00000	76.79671	-2928.93717	76.79671
80750.00000	77.45030	-2925.45943	77.45030
80800.00000	76.05615	-2925.98866	76.05615
80850.00000	76.82633	-2929.16344	76.82633
80900.00000	76.19671	-2924.57645	76.19671
80950.00000	75.86881	-2929.11435	75.86881
81000.00000	76.43658	-2925.99621	76.43658
81050.00000	75.89703	-2927.72367	75.89703
81100.00000	76.12202	-2928.89368	76.12202
81150.00000	76.35567	-2924.34183	76.35567
81200.00000	76.21993	-2931.23587	76.21993
81250.00000	76.23864	-2930.04157	76.23864
81300.00000	75.99570	-2931.74329	75.99570
81350.00000	76.31859	-2938.77866	76.31859
81400.00000	76.01414	-2933.39466	76.01414
81450.00000	75.72197	-2940.46461	75.72197
81500.00000	76.24713	-2941.48901	76.24713
81550.00000	75.55279	-2943.98681	75.55279
81600.00000	75.81534	-2948.31590	75.81534
81650.00000	75.24445	-2947.25814	75.24445
81700.00000	74.49146	-2950.81386	74.49146
81750.00000	74.16157	-2947.56995	74.16157
81800.00000	73.71014	-2949.70699	73.71014
81850.00000	73.63654	-2946.69324	73.63654
81900.00000	73.34624	-2944.93455	73.34624
81950.00000	72.98735	-2949.16475	72.98735
82000.00000	73.32749	-2944.74002	73.32749
82050.00000	73.02164	-2945.53618	73.02164
82100.00000	73.34510	-2943.61744	73.34510
82150.00000	72.94834	-2942.23983	72.94834
82200.00000	73.53834	-2942.67510	73.53834
82250.00000	73.73207	-2941.46124	73.73207
82300.00000	73.83512	-2941.73726	73.83512
82350.00000	74.65334	-2947.16000	74.65334
82400.00000	74.23389	-2944.06824	74.23389
82450.00000	74.80766	-2951.10734	74.80766
82500.00000	74.90103	-2952.43522	74.90103
82550.00000	74.21007	-2957.19047	74.21007
82600.00000	75.32222	-2960.62608	75.32222
82650.00000	74.87162	-2968.18975	74.87162
82700.00000	73.75225	-2972.42888	73.75225
82750.00000	72.38999	-2978.63247	72.38999
82800.00000	70.61164	-2982.98787	70.61164
82850.00000	67.02029	-2982.70347	67.02029
82900.00000	62.00670	-2938.57636	62.00670
82950.00000	67.65245	-2899.23429	67.65245
83000.00000	73.13389	-2898.75919	73.13389
83050.00000	75.56789	-2904.74908	75.56789
83100.00000	78.00476	-2920.03829	78.00476
83150.00000	79.12353	-2932.25954	79.12353
83200.00000	79.51215	-2940.93949	79.51215
83250.00000	79.41599	-2949.85205	79.41599
83300.00000	78.77344	-2955.68740	78.77344
83350.00000	77.68278	-2954.85705	77.68278
83400.00000	77.22910	-2954.17080	77.22910
83450.00000	76.64498	-2943.54208	76.64498
83500.00000	77.66434	-2933.78012	77.66434
83550.00000	79.19605	-2928.72166	79.19605
83600.00000	81.11339	-2927.31167	81.11339
83650.00000	82.85168	-2931.50210	82.85168
83700.00000	84.12491	-2937.86622	84.12491
83750.00000	85.09359	-2943.11892	85.09359
83800.00000	85.97750	-2950.23088	85.97750
83850.00000	86.59655	-2956.55990	86.59655
83900.00000	87.19059	-2963.67885	87.19059
83950.00000	87.69573	-2969.40091	87.69573
84000.00000	88.08459	-2976.69332	88.08459
84050.00000	88.47288	-2981.53945	88.47288
84100.00000	88.73586	-2988.05522	88.73586
84150.00000	88.91527	-2994.50975	88.91527
84200.00000	89.33559	-2998.65358	89.33559
84250.00000	89.48882	-3004.71102	89.48882
84300.00000	89.60516	-3010.31522	89.60516
84350.00000	89.87016	-3015.21398	89.87016
84400.00000	90.03062	-3020.47937	90.03062
84450.00000	90.33647	-3026.53787	90.33647
84500.00000	90.57642	-3031.85254	90.57642
84550.00000	90.61775	-3037.58174	90.61775
84600.00000	90.73557	-3043.41898	90.73557
84650.00000	90.96937	-3048.82116	90.96937
84700.00000	91.03203	-3054.27657	91.03203
84750.00000	91.13151	-3060.98877	91.13151
84800.00000	91.07819	-3067.06982	91.07819
84850.00000	91.10587	-3073.14702	91.10587
84900.00000	91.06846	-3079.38368	91.06846
84950.00000	90.99699	-3086.20868	90.99699
85000.00000	90.95034	-3092.04337	90.95034
85050.00000	90.80973	-3098.73511	90.80973
85100.00000	90.57307	-3105.13367	90.57307
85150.00000	90.30966	-3111.14501	90.30966
85200.00000	90.06745	-3116.77504	90.06745
85250.00000	90.20198	-3123.42930	90.20198
85300.00000	89.40868	-3128.66750	89.40868
85350.00000	88.95965	-3134.14400	88.95965
85400.00000	88.52205	-3140.03866	88.52205
85450.00000	88.04183	-3145.30700	88.04183
85500.00000	87.59203	-3150.03108	87.59203
85550.00000	87.01974	-3154.94171	87.01974
85600.00000	86.40111	-3159.10841	86.40111
85650.00000	85.96551	-3162.69313	85.96551
85700.00000	85.39592	-3167.71879	85.39592
85750.00000	84.57189	-3170.67952	84.57189
85800.00000	84.08997	-3172.03473	84.08997
85850.00000	83.21582	-3176.81044	83.21582
85900.00000	82.63329	-3179.81038	82.63329
85950.00000	82.20876	-3180.80853	82.20876
86000.00000	81.50056	-3181.47148	81.50056
86050.00000	81.18165	-3181.26959	81.18165
86100.00000	80.85980	-3183.42517	80.85980
86150.00000	80.13579	-3183.39908	80.13579
86200.00000	80.16948	-3184.80697	80.16948
86250.00000	79.91589	-3183.90387	79.91589
86300.00000	79.15590	-3187.20837	79.15590
86350.00000	79.43719	-3186.54515	79.43719
86400.00000	78.60469	-3191.92162	78.60469
86450.00000	78.00948	-3188.71685	78.00948
86500.00000	77.98886	-3188.16296	77.98886
86550.00000	77.87725	-3191.08602	77.87725
86600.00000	77.78128	-3193.29694	77.78128
86650.00000	77.73220	-3190.45073	77.73220
86700.00000	78.13826	-3191.12150	78.13826
86750.00000	77.72285	-3191.00943	77.72285
86800.00000	77.60838	-3195.31411	77.60838
86850.00000	77.60357	-3193.94098	77.60357
86900.00000	77.58745	-3194.00222	77.58745
86950.00000	77.43841	-3199.58876	77.43841
87000.00000	77.03315	-3197.72418	77.03315
87050.00000	77.86431	-3201.25737	77.86431
87100.00000	77.13363	-3202.90707	77.13363
87150.00000	77.68075	-3206.56911	77.68075
87200.00000	77.73561	-3204.26620	77.73561
87250.00000	77.02005	-3205.38634	77.02005
87300.00000	77.29417	-3210.90482	77.29417
87350.00000	77.16725	-3213.59132	77.16725
87400.00000	76.88475	-3213.92403	76.88475
87450.00000	77.14200	-3217.40496	77.14200
87500.00000	77.26358	-3217.37966	77.26358
87550.00000	76.77267	-3219.04161	76.77267
87600.00000	76.89208	-3225.81692	76.89208
87650.00000	76.80958	-3225.27780	76.80958
87700.00000	77.04456	-3226.94379	77.04456
87750.00000	76.59189	-3231.09540	76.59189
87800.00000	76.31731	-3232.96116	76.31731
87850.00000	76.40298	-3236.53968	76.40298
87900.00000	76.49944	-3238.07611	76.49944
87950.00000	76.15105	-3238.36937	76.15105
88000.00000	75.73217	-3241.28244	75.73217
88050.00000	75.99080	-3244.76669	75.99080
88100.00000	75.67593	-3246.52689	75.67593
88150.00000	75.49893	-3250.04625	75.49893
88200.00000	75.56551	-3251.82316	75.56551
88250.00000	75.04543	-3254.19871	75.04543
88300.00000	74.50544	-3255.71891	74.50544
88350.00000	74.29713	-3260.41720	74.29713
88400.00000	73.38319	-3262.47638	73.38319
88450.00000	73.34741	-3261.66609	73.34741
88500.00000	73.13244	-3263.46517	73.13244
88550.00000	73.16789	-3264.40495	73.16789
88600.00000	72.83901	-3265.32513	72.83901
88650.00000	71.97690	-3264.44065	71.97690
88700.00000	71.18456	-3267.58423	71.18456
88750.00000	71.72821	-3265.79114	71.72821
88800.00000	71.02718	-3266.08218	71.02718
88850.00000	71.12147	-3263.92397	71.12147
88900.00000	71.14452	-3264.35392	71.14452
88950.00000	70.21080	-3269.57109	70.21080
89000.00000	69.97222	-3261.71776	69.97222
89050.00000	70.97337	-3267.25937	70.97337
89100.00000	70.94840	-3265.89666	70.94840
89150.00000	70.29727	-3266.80969	70.29727
89200.00000	70.24636	-3264.56129	70.24636
89250.00000	70.56452	-3266.46990	70.56452
89300.00000	70.28728	-3263.07158	70.28728
89350.00000	70.33377	-3263.85197	70.33377
89400.00000	70.37583	-3264.44481	70.37583
89450.00000	70.49537	-3260.25451	70.49537
89500.00000	70.19750	-3262.38132	70.19750
89550.00000	70.41606	-3257.77819	70.41606
89600.00000	70.18746	-3259.55508	70.18746
89650.00000	70.30847	-3255.93903	70.30847
89700.00000	69.99906	-3255.63813	69.99906
89750.00000	70.42965	-3257.80686	70.42965
89800.00000	70.59348	-3250.66367	70.59348
89850.00000	70.69835	-3250.51476	70.69835
89900.00000	71.25552	-3249.19012	71.25552
89950.00000	71.39812	-3242.21074	71.39812
90000.00000	71.91051	-3233.67850	71.91051
90050.00000	72.70481	-3227.44405	72.70481
90100.00000	75.41928	-3228.60275	75.41928
90150.00000	77.22669	-3227.52056	77.22669
90200.00000	80.36899	-3230.27083	80.36899
90250.00000	81.62174	-3250.91205	81.62174
90300.00000	82.14470	-3271.88415	82.14470
90350.00000	80.78049	-3284.61690	80.78049
90400.00000	80.76931	-3284.45538	80.76931
90450.00000	80.19077	-3288.77470	80.19077
90500.00000	79.67142	-3294.39408	79.67142
90550.00000	79.39773	-3296.31529	79.39773
90600.00000	79.46908	-3297.42626	79.46908
90650.00000	79.73697	-3301.23582	79.73697
90700.00000	79.39045	-3305.16618	79.39045
90750.00000	79.65411	-3303.38865	79.65411
90800.00000	80.25539	-3308.57027	80.25539
90850.00000	80.23338	-3309.56726	80.23338
90900.00000	80.50823	-3313.77594	80.50823
90950.00000	80.61480	-3315.64082	80.61480
91000.00000	80.76711	-3318.36885	80.76711
91050.00000	80.92673	-3321.00873	80.92673
91100.00000	81.30812	-3326.00944	81.30812
91150.00000	81.62606	-3325.52824	81.62606
91200.00000	81.58485	-3331.35878	81.58485
91250.00000	81.93012	-3333.69194	81.93012
91300.00000	82.01950	-3337.08408	82.01950
91350.00000	82.14656	-3341.55420	82.14656
91400.00000	82.59154	-3344.63472	82.59154
91450.00000	82.43636	-3346.77633	82.43636
91500.00000	82.71282	-3352.00068	82.71282
91550.00000	82.86134	-3355.51232	82.86134
91600.00000	83.23890	-3358.01792	83.23890
91650.00000	83.23856	-3363.79469	83.23856
91700.00000	83.22265	-3366.08708	83.22265
91750.00000	83.45724	-3369.22899	83.45724
91800.00000	83.57275	-3373.71411	83.57275
91850.00000	83.74889	-3378.54990	83.74889
91900.00000	84.06055	-3383.33012	84.06055
91950.00000	83.85290	-3384.96672	83.85290
92000.00000	84.02679	-3388.82437	84.02679
92050.00000	83.95059	-3394.29883	83.95059
92100.00000	84.28205	-3398.15171	84.28205
92150.00000	84.24596	-3401.61972	84.24596
92200.00000	84.37022	-3406.16588	84.37022
92250.00000	84.33630	-3410.48753	84.33630
92300.00000	84.46230	-3413.25193	84.46230
92350.00000	84.59398	-3416.79254	84.59398
92400.00000	84.62939	-3421.49931	84.62939
92450.00000	84.48743	-3425.26911	84.48743
92500.00000	84.51278	-3430.01016	84.51278
92550.00000	84.58882	-3435.27221	84.58882
92600.00000	84.68145	-3437.80249	84.68145
92650.00000	84.37286	-3441.06241	84.37286
92700.00000	84.52093	-3445.41254	84.52093
92750.00000	84.37223	-3448.91323	84.37223
92800.00000	84.51474	-3452.77075	84.51474
92850.00000	84.31177	-3456.98651	84.31177
92900.00000	84.36842	-3461.76675	84.36842
92950.00000	84.28641	-3463.74234	84.28641
93000.00000	84.21896	-3468.44243	84.21896
93050.00000	84.17652	-3472.64518	84.17652
93100.00000	84.16992	-3474.92934	84.16992
93150.00000	84.21698	-3479.28113	84.21698
93200.00000	84.02773	-3482.09025	84.02773
93250.00000	84.28587	-3486.21176	84.28587
93300.00000	84.19875	-3491.03878	84.19875
93350.00000	84.34355	-3496.24109	84.34355
93400.00000	84.10133	-3498.75086	84.10133
93450.00000	84.20171	-3502.21899	84.20171
93500.00000	84.30493	-3508.14305	84.30493
93550.00000	84.02510	-3514.03702	84.02510
93600.00000	84.05242	-3517.55013	84.05242
93650.00000	84.01596	-3522.50193	84.01596
93700.00000	84.03441	-3526.52624	84.03441
93750.00000	83.70104	-3531.93815	83.70104
93800.00000	83.70820	-3535.19245	83.70820
93850.00000	83.70341	-3540.52283	83.70341
93900.00000	83.18844	-3546.17513	83.18844
93950.00000	83.12436	-3550.40294	83.12436
94000.00000	82.88817	-3555.15289	82.88817
94050.00000	82.80194	-3560.73217	82.80194
94100.00000	82.48352	-3566.01713	82.48352
94150.00000	82.11598	-3568.56236	82.11598
94200.00000	82.35369	-3575.38153	82.35369
94250.00000	81.77068	-3579.69781	81.77068
94300.00000	81.41506	-3584.50263	81.41506
94350.00000	80.87171	-3588.50569	80.87171
94400.00000	80.68152	-3591.90064	80.68152
94450.00000	80.45279	-3595.67634	80.45279
94500.00000	79.90663	-3600.84725	79.90663
94550.00000	79.57263	-3605.41696	79.57263
94600.00000	79.44805	-3606.82731	79.44805
94650.00000	79.28201	-3612.96424	79.28201
94700.00000	78.70212	-3616.71067	78.70212
94750.00000	78.33843	-3623.72497	78.33843
94800.00000	78.16898	-3627.21737	78.16898
94850.00000	77.84900	-3633.68441	77.84900
94900.00000	77.67787	-3634.79345	77.67787
94950.00000	77.34018	-3637.92618	77.34018
95000.00000	76.44007	-3644.41915	76.44007
95050.00000	76.13915	-3649.36317	76.13915
95100.00000	75.51803	-3654.45911	75.51803
95150.00000	74.71047	-3654.99387	74.71047
95200.00000	74.16619	-3655.35475	74.16619
95250.00000	73.58611	-3658.35636	73.58611
95300.00000	74.03282	-3668.18309	74.03282
95350.00000	73.18928	-3668.47454	73.18928
95400.00000	72.00990	-3673.57668	72.00990
95450.00000	71.19643	-3677.36421	71.19643
95500.00000	70.55356	-3675.37307	70.55356
95550.00000	69.32712	-3677.14545	69.32712
95600.00000	68.63707	-3681.55275	68.63707
95650.00000	68.39620	-3676.19551	68.39620
95700.00000	69.24176	-3662.61021	69.24176
95750.00000	67.58991	-3685.00267	67.58991
95800.00000	65.79427	-3668.28586	65.79427
95850.00000	66.25546	-3656.51597	66.25546
95900.00000	68.58303	-3680.88567	68.58303
95950.00000	68.25541	-3672.26155	68.25541
96000.00000	67.98789	-3663.28681	67.98789
96050.00000	66.93954	-3668.15299	66.93954
96100.00000	65.76423	-3682.68994	65.76423
96150.00000	67.10843	-3676.18365	67.10843
96200.00000	68.45317	-3683.89742	68.45317
96250.00000	68.20289	-3688.01046	68.20289
96300.00000	70.00956	-3686.79901	70.00956
96350.00000	67.94695	-3692.79178	67.94695
96400.00000	67.24370	-3672.53983	67.24370
96450.00000	67.06010	-3694.16011	67.06010
96500.00000	68.61810	-3700.50978	68.61810
96550.00000	65.01195	-3701.93116	65.01195
96600.00000	68.71464	-3684.67305	68.71464
96650.00000	67.69669	-3696.18923	67.69669
96700.00000	64.30859	-3711.29471	64.30859
96750.00000	68.25812	-3707.19827	68.25812
96800.00000	67.88448	-3715.51714	67.88448
96850.00000	64.65496	-3727.51910	64.65496
96900.00000	69.56525	-3721.51269	69.56525
96950.00000	68.29149	-3748.05754	68.29149
97000.00000	62.13384	-3739.98170	62.13384
97050.00000	66.75868	-3744.71929	66.75868
97100.00000	65.94988	-3739.30419	65.94988
97150.00000	54.90147	-3726.34133	54.90147
97200.00000	68.86676	-3749.22840	68.86676
97250.00000	68.14627	-3766.84499	68.14627
97300.00000	57.83234	-3828.20906	57.83234
97350.00000	61.60012	-3903.04257	61.60012
97400.00000	58.46239	-3791.43108	58.46239
97450.00000	55.08302	-3709.98121	55.08302
97500.00000	53.31025	-3641.33758	53.31025
97550.00000	55.82017	-3651.80946	55.82017
97600.00000	57.92731	-3675.19237	57.92731
97650.00000	53.99218	-3688.34167	53.99218
97700.00000	58.15273	-3659.51387	58.15273
97750.00000	54.76463	-3657.13223	54.76463
97800.00000	56.53917	-3695.48374	56.53917
97850.00000	61.10522	-3649.14468	61.10522
97900.00000	58.43744	-3675.25114	58.43744
97950.00000	56.60562	-3674.10461	56.60562
98000.00000	59.11789	-3696.26535	59.11789
98050.00000	63.87799	-3686.10463	63.87799
98100.00000	59.89635	-3666.27513	59.89635
98150.00000	61.34224	-3659.59448	61.34224
98200.00000	61.92254	-3694.60207	61.92254
98250.00000	65.07781	-3706.23081	65.07781
98300.00000	63.28551	-3692.20124	63.28551
98350.00000	59.54648	-3697.76806	59.54648
98400.00000	62.04389	-3725.60166	62.04389
98450.00000	60.55125	-3691.58991	60.55125
98500.00000	63.73020	-3748.87385	63.73020
98550.00000	64.85804	-3731.54756	64.85804
98600.00000	61.00719	-3722.00560	61.00719
98650.00000	62.69862	-3742.15255	62.69862
98700.00000	59.75197	-3735.78345	59.75197
98750.00000	62.49676	-3766.10436	62.49676
98800.00000	60.20448	-3766.47353	60.20448
98850.00000	59.48825	-3786.83461	59.48825
98900.00000	60.85664	-3784.79389	60.85664
98950.00000	59.24687	-3790.92957	59.24687
99000.00000	59.19669	-3784.81489	59.19669
99050.00000	53.84290	-3826.07079	53.84290
99100.00000	60.22290	-3807.12277	60.22290
99150.00000	55.94143	-3833.93571	55.94143
99200.00000	56.74710	-3825.24104	56.74710
99250.00000	60.14772	-3846.83313	60.14772
99300.00000	59.45914	-3830.64008	59.45914
99350.00000	62.17102	-3839.02598	62.17102
99400.00000	59.30099	-3868.06233	59.30099
99450.00000	55.54739	-3844.80241	55.54739
99500.00000	60.25688	-3884.01370	60.25688
99550.00000	54.52776	-3902.14385	54.52776
99600.00000	58.05817	-3868.19624	58.05817
99650.00000	57.52099	-3875.22102	57.52099
99700.00000	54.71994	-3906.85008	54.71994
99750.00000	58.97629	-3921.61451	58.97629
99800.00000	57.30360	-3912.06867	57.30360
99850.00000	59.21384	-3932.16447	59.21384
99900.00000	55.58806	-3964.22757	55.58806
99950.00000	59.02464	-3967.08336	59.02464
