---ACOUSTIC CALIBRATION---
Filename: C:\Data\CL0809 DATA\CL0809100\RightSecondary.calib
Date: 8/9/2019 9:00:47 AM
Format: 4
Probe Tube Correction File: C:\Data\Probe Tube Calibrations\74_ProbeTube.calib
Experiment VIs: 2128
EPL_CFTS.exe V15.0.1f5 (2015)
DAQmx V15.1

Attenuation (dB): 40.000000
Min Freq (Hz): 50.000000
Max Freq (Hz): 99950.000000
Freq Step (Hz): 50.000000
Sample Rate (Hz): 200000.000000
[Smoothing]
Method=None
MA.Iterations=0
MA.Length=0
Loess.Length=0
Loess.Type=Linear
Loess.Robust=FALSE


Freq(Hz)	Mag(dB)	Phase(deg)	Unsmoothed(dB)

50.00000	94.09827	138.76171	94.09827
100.00000	50.02228	295.52590	50.02228
150.00000	61.99050	461.55627	61.99050
200.00000	59.79561	521.23814	59.79561
250.00000	56.09841	738.67857	56.09841
300.00000	67.64549	849.85289	67.64549
350.00000	64.36077	1022.18935	64.36077
400.00000	64.45308	1083.19196	64.45308
450.00000	69.38477	1118.91387	69.38477
500.00000	73.14621	1227.89987	73.14621
550.00000	79.53035	1154.77852	79.53035
600.00000	77.71819	1116.43029	77.71819
650.00000	85.17221	1104.65593	85.17221
700.00000	84.87169	1102.56738	84.87169
750.00000	88.65085	1068.92662	88.65085
800.00000	90.25783	1052.98924	90.25783
850.00000	89.35784	1040.49530	89.35784
900.00000	89.73978	1034.65283	89.73978
950.00000	91.39465	1020.37508	91.39465
1000.00000	91.55442	1013.45065	91.55442
1050.00000	91.89768	999.09213	91.89768
1100.00000	91.54023	987.77717	91.54023
1150.00000	90.72829	981.81247	90.72829
1200.00000	89.86611	982.08433	89.86611
1250.00000	89.70764	986.43946	89.70764
1300.00000	90.68876	990.34197	90.68876
1350.00000	91.73890	988.69974	91.73890
1400.00000	92.32724	987.07101	92.32724
1450.00000	93.01043	987.22476	93.01043
1500.00000	94.26044	986.75049	94.26044
1550.00000	95.53011	982.91635	95.53011
1600.00000	96.95909	980.24915	96.95909
1650.00000	98.30991	976.90249	98.30991
1700.00000	102.68662	960.86873	102.68662
1750.00000	99.96206	940.04220	99.96206
1800.00000	99.88106	934.15794	99.88106
1850.00000	99.75278	926.22308	99.75278
1900.00000	99.73605	919.20852	99.73605
1950.00000	99.27687	913.13489	99.27687
2000.00000	98.80297	907.01773	98.80297
2050.00000	97.95058	903.75678	97.95058
2100.00000	97.39793	907.21269	97.39793
2150.00000	98.44641	908.86556	98.44641
2200.00000	99.07628	900.38163	99.07628
2250.00000	98.67008	894.40544	98.67008
2300.00000	98.40503	892.26367	98.40503
2350.00000	98.40969	888.69588	98.40969
2400.00000	98.40316	886.43168	98.40316
2450.00000	98.16334	882.32757	98.16334
2500.00000	97.67894	882.71226	97.67894
2550.00000	97.87423	882.58359	97.87423
2600.00000	98.04803	881.35121	98.04803
2650.00000	98.18094	880.95733	98.18094
2700.00000	98.40935	879.11002	98.40935
2750.00000	98.64317	877.89691	98.64317
2800.00000	98.94436	875.76366	98.94436
2850.00000	99.23076	873.85058	99.23076
2900.00000	99.54902	871.09511	99.54902
2950.00000	99.84565	868.74615	99.84565
3000.00000	100.05869	866.51837	100.05869
3050.00000	100.30161	863.56382	100.30161
3100.00000	100.48937	860.44833	100.48937
3150.00000	100.49574	858.14736	100.49574
3200.00000	100.68433	855.29319	100.68433
3250.00000	100.92660	853.21547	100.92660
3300.00000	100.95092	850.96139	100.95092
3350.00000	101.19494	849.33037	101.19494
3400.00000	101.30034	847.35143	101.30034
3450.00000	101.41035	846.44325	101.41035
3500.00000	101.58020	845.83388	101.58020
3550.00000	102.24556	844.17428	102.24556
3600.00000	102.32573	841.18510	102.32573
3650.00000	102.65122	841.53694	102.65122
3700.00000	102.98116	840.76330	102.98116
3750.00000	103.63779	838.52170	103.63779
3800.00000	104.65362	836.98875	104.65362
3850.00000	105.38213	827.48803	105.38213
3900.00000	105.85683	819.25116	105.85683
3950.00000	105.13066	815.45671	105.13066
4000.00000	104.79469	816.40040	104.79469
4050.00000	105.18344	817.02398	105.18344
4100.00000	105.79606	816.77009	105.79606
4150.00000	107.34146	813.91584	107.34146
4200.00000	108.27085	809.54903	108.27085
4250.00000	108.38528	797.13861	108.38528
4300.00000	108.52285	794.17843	108.52285
4350.00000	108.97255	789.36585	108.97255
4400.00000	109.35465	783.12570	109.35465
4450.00000	109.47764	775.83995	109.47764
4500.00000	109.60330	769.53848	109.60330
4550.00000	109.52573	763.96529	109.52573
4600.00000	109.56569	758.32727	109.56569
4650.00000	109.57692	753.26097	109.57692
4700.00000	109.53477	748.23231	109.53477
4750.00000	109.50442	743.51291	109.50442
4800.00000	109.52376	739.07385	109.52376
4850.00000	109.54494	734.20042	109.54494
4900.00000	109.55705	728.71226	109.55705
4950.00000	109.53592	723.56664	109.53592
5000.00000	109.46759	717.97853	109.46759
5050.00000	109.34673	712.42547	109.34673
5100.00000	109.17191	706.92618	109.17191
5150.00000	108.93544	701.52263	108.93544
5200.00000	108.62997	696.00412	108.62997
5250.00000	108.10850	690.76227	108.10850
5300.00000	107.29595	688.97567	107.29595
5350.00000	107.62649	689.19493	107.62649
5400.00000	107.73726	683.19576	107.73726
5450.00000	107.45941	677.99131	107.45941
5500.00000	107.12971	673.33958	107.12971
5550.00000	106.79306	669.68193	106.79306
5600.00000	106.48087	665.77823	106.48087
5650.00000	106.10505	662.39928	106.10505
5700.00000	105.74547	659.02376	105.74547
5750.00000	105.42971	655.88625	105.42971
5800.00000	105.08165	653.14150	105.08165
5850.00000	104.71579	650.35547	104.71579
5900.00000	104.36661	647.67568	104.36661
5950.00000	104.06042	645.36231	104.06042
6000.00000	103.75036	643.17525	103.75036
6050.00000	103.46306	640.90295	103.46306
6100.00000	103.17202	638.63067	103.17202
6150.00000	102.84671	636.30833	102.84671
6200.00000	102.52251	634.53723	102.52251
6250.00000	102.24100	632.73905	102.24100
6300.00000	101.93366	630.99848	101.93366
6350.00000	101.63784	629.34111	101.63784
6400.00000	101.37896	628.05147	101.37896
6450.00000	101.10934	626.72829	101.10934
6500.00000	100.86136	625.71330	100.86136
6550.00000	100.64494	624.58024	100.64494
6600.00000	100.44593	623.47144	100.44593
6650.00000	100.19819	622.55529	100.19819
6700.00000	99.99559	622.07115	99.99559
6750.00000	99.84720	621.94723	99.84720
6800.00000	99.78680	621.76281	99.78680
6850.00000	99.79672	621.51593	99.79672
6900.00000	99.88286	620.78623	99.88286
6950.00000	100.01732	619.33344	100.01732
7000.00000	100.05566	617.28331	100.05566
7050.00000	100.08138	615.02144	100.08138
7100.00000	100.02434	612.68663	100.02434
7150.00000	99.87976	610.32871	99.87976
7200.00000	99.68878	608.40093	99.68878
7250.00000	99.45278	607.07751	99.45278
7300.00000	99.21660	606.14615	99.21660
7350.00000	99.02731	605.55869	99.02731
7400.00000	98.84985	605.59994	98.84985
7450.00000	98.78916	606.03156	98.78916
7500.00000	98.80306	606.26224	98.80306
7550.00000	98.88662	606.51646	98.88662
7600.00000	99.05471	606.55604	99.05471
7650.00000	99.25668	606.25399	99.25668
7700.00000	99.44111	605.55170	99.44111
7750.00000	99.70993	604.71422	99.70993
7800.00000	99.96923	603.40481	99.96923
7850.00000	100.22273	601.89648	100.22273
7900.00000	100.45152	599.96221	100.45152
7950.00000	100.64953	597.98511	100.64953
8000.00000	100.86666	596.10800	100.86666
8050.00000	101.04105	593.92563	101.04105
8100.00000	101.24439	591.84503	101.24439
8150.00000	101.44729	589.71862	101.44729
8200.00000	101.63388	587.33618	101.63388
8250.00000	101.82943	585.02507	101.82943
8300.00000	101.98987	582.37417	101.98987
8350.00000	102.15330	579.70960	102.15330
8400.00000	102.33540	577.34893	102.33540
8450.00000	102.50797	574.60051	102.50797
8500.00000	102.66185	571.85983	102.66185
8550.00000	102.83081	569.01156	102.83081
8600.00000	103.00525	566.40221	103.00525
8650.00000	103.16682	563.48435	103.16682
8700.00000	103.32984	560.12399	103.32984
8750.00000	103.43026	556.82798	103.43026
8800.00000	103.55753	553.65815	103.55753
8850.00000	103.70655	550.30399	103.70655
8900.00000	103.79525	546.67758	103.79525
8950.00000	103.89061	543.03872	103.89061
9000.00000	103.88698	539.10098	103.88698
9050.00000	103.89561	535.63070	103.89561
9100.00000	103.91580	532.21897	103.91580
9150.00000	103.94676	528.22642	103.94676
9200.00000	103.85459	524.21225	103.85459
9250.00000	103.74176	520.65154	103.74176
9300.00000	103.67803	516.91861	103.67803
9350.00000	103.55585	513.11684	103.55585
9400.00000	103.41826	509.36845	103.41826
9450.00000	103.26879	505.79867	103.26879
9500.00000	103.08580	502.18445	103.08580
9550.00000	102.87243	499.07848	102.87243
9600.00000	102.70957	496.12851	102.70957
9650.00000	102.55717	493.17079	102.55717
9700.00000	102.32293	490.19160	102.32293
9750.00000	102.13390	487.55029	102.13390
9800.00000	101.86999	485.19208	101.86999
9850.00000	101.64808	483.11205	101.64808
9900.00000	101.50481	481.57139	101.50481
9950.00000	101.36803	479.70747	101.36803
10000.00000	101.24755	478.07251	101.24755
10050.00000	101.13378	476.35214	101.13378
10100.00000	101.07844	474.52092	101.07844
10150.00000	100.94714	472.30611	100.94714
10200.00000	100.80404	470.41713	100.80404
10250.00000	100.66965	468.88375	100.66965
10300.00000	100.56217	467.44339	100.56217
10350.00000	100.50141	465.79384	100.50141
10400.00000	100.38259	463.94118	100.38259
10450.00000	100.34175	462.27468	100.34175
10500.00000	100.33481	460.30708	100.33481
10550.00000	100.31270	458.53097	100.31270
10600.00000	100.39625	456.15941	100.39625
10650.00000	100.39978	454.04509	100.39978
10700.00000	100.43050	451.58519	100.43050
10750.00000	100.46233	449.40516	100.46233
10800.00000	100.56038	446.63903	100.56038
10850.00000	100.64042	443.98308	100.64042
10900.00000	100.70455	441.28042	100.70455
10950.00000	100.74108	438.52446	100.74108
11000.00000	100.86492	435.63953	100.86492
11050.00000	100.83000	432.37050	100.83000
11100.00000	100.87244	429.39400	100.87244
11150.00000	100.89858	426.13113	100.89858
11200.00000	100.89438	422.85575	100.89438
11250.00000	100.80835	419.14232	100.80835
11300.00000	100.69307	415.50519	100.69307
11350.00000	100.58057	411.72930	100.58057
11400.00000	100.39343	407.68136	100.39343
11450.00000	100.22544	403.76877	100.22544
11500.00000	100.02130	399.85868	100.02130
11550.00000	99.77691	395.90954	99.77691
11600.00000	99.50046	392.11414	99.50046
11650.00000	99.20322	388.46891	99.20322
11700.00000	98.96105	384.92714	98.96105
11750.00000	98.65103	381.68775	98.65103
11800.00000	98.37173	378.90508	98.37173
11850.00000	98.12964	376.00104	98.12964
11900.00000	97.80239	373.69673	97.80239
11950.00000	97.52725	371.33293	97.52725
12000.00000	97.31364	369.47327	97.31364
12050.00000	96.94893	367.56656	96.94893
12100.00000	96.58147	365.52729	96.58147
12150.00000	96.16631	363.46548	96.16631
12200.00000	95.79571	361.66626	95.79571
12250.00000	95.44500	360.13936	95.44500
12300.00000	94.89981	358.28810	94.89981
12350.00000	94.53527	356.75144	94.53527
12400.00000	94.07402	354.61853	94.07402
12450.00000	93.80949	353.06337	93.80949
12500.00000	93.51339	351.75353	93.51339
12550.00000	93.22169	350.41666	93.22169
12600.00000	92.91325	347.87818	92.91325
12650.00000	92.62835	347.07962	92.62835
12700.00000	92.20777	345.49250	92.20777
12750.00000	91.95997	345.00878	91.95997
12800.00000	91.75488	343.88011	91.75488
12850.00000	91.37197	343.73999	91.37197
12900.00000	90.94604	341.49623	90.94604
12950.00000	90.65491	339.20416	90.65491
13000.00000	90.28515	337.55608	90.28515
13050.00000	89.98907	335.63549	89.98907
13100.00000	89.76926	332.88599	89.76926
13150.00000	89.66588	331.29399	89.66588
13200.00000	89.62517	327.01982	89.62517
13250.00000	89.84704	322.57178	89.84704
13300.00000	90.35727	323.01126	90.35727
13350.00000	91.17732	321.69675	91.17732
13400.00000	92.07084	326.22483	92.07084
13450.00000	92.34957	335.98450	92.34957
13500.00000	91.66634	350.85719	91.66634
13550.00000	90.20968	359.18561	90.20968
13600.00000	88.24753	362.53585	88.24753
13650.00000	86.37751	361.36910	86.37751
13700.00000	85.00518	357.71975	85.00518
13750.00000	83.86351	350.32949	83.86351
13800.00000	83.47606	344.04501	83.47606
13850.00000	83.27204	336.98681	83.27204
13900.00000	83.33222	329.78963	83.33222
13950.00000	83.93314	324.63004	83.93314
14000.00000	85.27177	321.51996	85.27177
14050.00000	86.96100	322.64958	86.96100
14100.00000	88.81074	328.31787	88.81074
14150.00000	90.37692	343.91765	90.37692
14200.00000	90.17226	358.96669	90.17226
14250.00000	88.77984	373.36220	88.77984
14300.00000	87.18041	378.71579	87.18041
14350.00000	85.80855	380.04675	85.80855
14400.00000	84.92121	377.94414	84.92121
14450.00000	84.20499	374.58361	84.20499
14500.00000	84.27292	370.43561	84.27292
14550.00000	83.88876	365.95287	83.88876
14600.00000	84.32997	363.89807	84.32997
14650.00000	84.66862	360.40988	84.66862
14700.00000	85.60428	356.48127	85.60428
14750.00000	86.67641	352.97617	86.67641
14800.00000	87.49167	353.65636	87.49167
14850.00000	88.58866	355.55737	88.58866
14900.00000	89.94677	358.91537	89.94677
14950.00000	90.56205	363.79209	90.56205
15000.00000	90.97464	369.34268	90.97464
15050.00000	90.97271	373.22328	90.97271
15100.00000	90.95043	376.14873	90.95043
15150.00000	90.74883	375.38123	90.74883
15200.00000	90.74259	372.92419	90.74259
15250.00000	90.63081	370.68257	90.63081
15300.00000	90.76420	367.12528	90.76420
15350.00000	91.15035	362.59170	91.15035
15400.00000	91.56806	358.63748	91.56806
15450.00000	92.08611	354.18178	92.08611
15500.00000	92.91613	350.76467	92.91613
15550.00000	93.59544	348.41547	93.59544
15600.00000	94.38147	345.67190	94.38147
15650.00000	94.97042	344.06958	94.97042
15700.00000	95.31587	343.68450	95.31587
15750.00000	95.63511	343.31433	95.63511
15800.00000	95.66951	342.29475	95.66951
15850.00000	95.83677	341.70181	95.83677
15900.00000	95.74040	338.25627	95.74040
15950.00000	95.66073	335.12648	95.66073
16000.00000	95.60362	332.30148	95.60362
16050.00000	95.72523	328.39383	95.72523
16100.00000	95.82729	325.21146	95.82729
16150.00000	95.97551	321.29724	95.97551
16200.00000	96.25086	318.72464	96.25086
16250.00000	96.47228	315.74676	96.47228
16300.00000	96.75921	313.37570	96.75921
16350.00000	97.06347	311.79832	97.06347
16400.00000	97.26503	310.47114	97.26503
16450.00000	97.41844	309.68963	97.41844
16500.00000	97.55261	308.63633	97.55261
16550.00000	97.67065	306.47950	97.67065
16600.00000	97.70454	304.89822	97.70454
16650.00000	97.77198	302.85998	97.77198
16700.00000	97.87096	300.72892	97.87096
16750.00000	97.97007	297.99313	97.97007
16800.00000	98.10922	295.50626	98.10922
16850.00000	98.36183	293.12483	98.36183
16900.00000	98.59082	290.81029	98.59082
16950.00000	98.84367	288.72246	98.84367
17000.00000	99.04445	286.61507	99.04445
17050.00000	99.26316	285.10840	99.26316
17100.00000	99.47266	283.45818	99.47266
17150.00000	99.68105	281.55866	99.68105
17200.00000	99.79456	279.62062	99.79456
17250.00000	99.93485	277.20654	99.93485
17300.00000	100.13439	274.59436	100.13439
17350.00000	100.27047	271.64845	100.27047
17400.00000	100.50132	268.71822	100.50132
17450.00000	100.71188	265.63751	100.71188
17500.00000	100.86942	262.90115	100.86942
17550.00000	101.11023	259.71374	101.11023
17600.00000	101.27213	256.85334	101.27213
17650.00000	101.48417	254.33025	101.48417
17700.00000	101.68530	251.63856	101.68530
17750.00000	101.78937	248.86898	101.78937
17800.00000	101.87414	245.74614	101.87414
17850.00000	101.99924	243.13296	101.99924
17900.00000	102.11892	240.22326	102.11892
17950.00000	102.16262	237.28450	102.16262
18000.00000	102.24188	234.36657	102.24188
18050.00000	102.28903	231.34976	102.28903
18100.00000	102.34141	228.41736	102.34141
18150.00000	102.41726	225.36172	102.41726
18200.00000	102.45238	222.62361	102.45238
18250.00000	102.53434	219.98629	102.53434
18300.00000	102.54552	217.33021	102.54552
18350.00000	102.58029	214.58053	102.58029
18400.00000	102.63648	211.89189	102.63648
18450.00000	102.70766	209.54913	102.70766
18500.00000	102.74547	207.13964	102.74547
18550.00000	102.81098	204.27023	102.81098
18600.00000	102.86438	201.96118	102.86438
18650.00000	102.96523	199.31671	102.96523
18700.00000	103.02373	197.03033	103.02373
18750.00000	103.08782	194.37768	103.08782
18800.00000	103.12893	191.74122	103.12893
18850.00000	103.21327	189.30060	103.21327
18900.00000	103.22810	186.74643	103.22810
18950.00000	103.29996	184.05391	103.29996
19000.00000	103.30853	181.41162	103.30853
19050.00000	103.35811	178.62521	103.35811
19100.00000	103.39791	175.81125	103.39791
19150.00000	103.44706	173.50379	103.44706
19200.00000	103.49017	170.86407	103.49017
19250.00000	103.49425	168.46035	103.49425
19300.00000	103.56416	166.16708	103.56416
19350.00000	103.58925	163.41878	103.58925
19400.00000	103.60166	161.21351	103.60166
19450.00000	103.62469	158.72555	103.62469
19500.00000	103.69106	156.55765	103.69106
19550.00000	103.72573	154.01051	103.72573
19600.00000	103.77665	151.78617	103.77665
19650.00000	103.84055	149.43581	103.84055
19700.00000	103.89899	146.87014	103.89899
19750.00000	103.97578	144.60536	103.97578
19800.00000	104.05442	142.48168	104.05442
19850.00000	104.09428	139.82192	104.09428
19900.00000	104.20145	137.37147	104.20145
19950.00000	104.27593	135.09330	104.27593
20000.00000	104.33712	132.04999	104.33712
20050.00000	104.40399	129.61983	104.40399
20100.00000	104.52318	127.05947	104.52318
20150.00000	104.58168	124.05597	104.58168
20200.00000	104.65832	121.39809	104.65832
20250.00000	104.74244	118.87177	104.74244
20300.00000	104.82386	116.19724	104.82386
20350.00000	104.89084	113.49328	104.89084
20400.00000	104.92891	110.68064	104.92891
20450.00000	105.01082	107.65728	105.01082
20500.00000	105.07042	104.78002	105.07042
20550.00000	105.09699	101.63356	105.09699
20600.00000	105.13279	98.72788	105.13279
20650.00000	105.18925	95.68922	105.18925
20700.00000	105.21979	93.00844	105.21979
20750.00000	105.22674	90.09127	105.22674
20800.00000	105.24559	87.05904	105.24559
20850.00000	105.25201	83.88597	105.25201
20900.00000	105.22620	81.06637	105.22620
20950.00000	105.22851	77.97248	105.22851
21000.00000	105.23790	74.91175	105.23790
21050.00000	105.23376	72.00139	105.23376
21100.00000	105.20449	69.09550	105.20449
21150.00000	105.15977	66.44420	105.15977
21200.00000	105.12877	63.64990	105.12877
21250.00000	105.07447	60.95403	105.07447
21300.00000	105.03128	57.92885	105.03128
21350.00000	104.99953	55.19317	104.99953
21400.00000	104.96014	52.20432	104.96014
21450.00000	104.93817	49.55467	104.93817
21500.00000	104.93480	47.07235	104.93480
21550.00000	104.90701	44.47653	104.90701
21600.00000	104.85228	41.66620	104.85228
21650.00000	104.80948	39.22394	104.80948
21700.00000	104.71885	36.22873	104.71885
21750.00000	104.68514	33.61183	104.68514
21800.00000	104.64203	30.91322	104.64203
21850.00000	104.59837	28.44926	104.59837
21900.00000	104.54408	25.91202	104.54408
21950.00000	104.51627	23.36384	104.51627
22000.00000	104.41166	21.08036	104.41166
22050.00000	104.36443	18.85875	104.36443
22100.00000	104.32982	16.63223	104.32982
22150.00000	104.31754	14.43936	104.31754
22200.00000	104.30231	12.04035	104.30231
22250.00000	104.33388	 9.72023	104.33388
22300.00000	104.36726	 7.09731	104.36726
22350.00000	104.34769	 4.47972	104.34769
22400.00000	104.36729	 1.83930	104.36729
22450.00000	104.39715	-0.47962	104.39715
22500.00000	104.37997	-3.28465	104.37997
22550.00000	104.38696	-6.04025	104.38696
22600.00000	104.37788	-8.43515	104.37788
22650.00000	104.37911	-11.15036	104.37911
22700.00000	104.35390	-13.80332	104.35390
22750.00000	104.38219	-16.70779	104.38219
22800.00000	104.38359	-19.66377	104.38359
22850.00000	104.35565	-22.34985	104.35565
22900.00000	104.39654	-24.95011	104.39654
22950.00000	104.41328	-27.87216	104.41328
23000.00000	104.37325	-30.92854	104.37325
23050.00000	104.33433	-33.88295	104.33433
23100.00000	104.29130	-37.09418	104.29130
23150.00000	104.20946	-40.14130	104.20946
23200.00000	104.14408	-43.64783	104.14408
23250.00000	104.17018	-46.80689	104.17018
23300.00000	104.15161	-50.55677	104.15161
23350.00000	103.98851	-53.26376	103.98851
23400.00000	103.90464	-56.10493	103.90464
23450.00000	103.77348	-59.00229	103.77348
23500.00000	103.70133	-61.91781	103.70133
23550.00000	103.56667	-64.93343	103.56667
23600.00000	103.47748	-67.99776	103.47748
23650.00000	103.24322	-70.74662	103.24322
23700.00000	103.17666	-73.46211	103.17666
23750.00000	103.03023	-76.66906	103.03023
23800.00000	102.86392	-79.33979	102.86392
23850.00000	102.71529	-82.15422	102.71529
23900.00000	102.51627	-84.92158	102.51627
23950.00000	102.34054	-87.22974	102.34054
24000.00000	102.25518	-89.95930	102.25518
24050.00000	102.03649	-92.51011	102.03649
24100.00000	101.82644	-95.01724	101.82644
24150.00000	101.63076	-97.11978	101.63076
24200.00000	101.50197	-100.31601	101.50197
24250.00000	101.32184	-102.42066	101.32184
24300.00000	101.15119	-104.76666	101.15119
24350.00000	101.01041	-106.57424	101.01041
24400.00000	100.94218	-108.88422	100.94218
24450.00000	100.68858	-110.63444	100.68858
24500.00000	100.45799	-113.64869	100.45799
24550.00000	100.31286	-115.72664	100.31286
24600.00000	100.14935	-117.89041	100.14935
24650.00000	100.02678	-119.90785	100.02678
24700.00000	99.82721	-121.53300	99.82721
24750.00000	99.78476	-123.38997	99.78476
24800.00000	99.59338	-124.76391	99.59338
24850.00000	99.54969	-126.80310	99.54969
24900.00000	99.36279	-128.63990	99.36279
24950.00000	99.32038	-130.44754	99.32038
25000.00000	99.20096	-132.70654	99.20096
25050.00000	99.09173	-134.11030	99.09173
25100.00000	99.05191	-135.59753	99.05191
25150.00000	98.93685	-137.52497	98.93685
25200.00000	98.88280	-139.66918	98.88280
25250.00000	98.74166	-141.99009	98.74166
25300.00000	98.63475	-143.96791	98.63475
25350.00000	98.60053	-146.17520	98.60053
25400.00000	98.56164	-148.16681	98.56164
25450.00000	98.55633	-150.72427	98.55633
25500.00000	98.54186	-152.43599	98.54186
25550.00000	98.41161	-155.04832	98.41161
25600.00000	98.35717	-157.09650	98.35717
25650.00000	98.24349	-160.10338	98.24349
25700.00000	98.21220	-161.81931	98.21220
25750.00000	98.14290	-164.94338	98.14290
25800.00000	97.99067	-166.72895	97.99067
25850.00000	97.93800	-169.32900	97.93800
25900.00000	97.76778	-171.72461	97.76778
25950.00000	97.66840	-174.05217	97.66840
26000.00000	97.57540	-176.12373	97.57540
26050.00000	97.53032	-178.86056	97.53032
26100.00000	97.42426	-181.31419	97.42426
26150.00000	97.26699	-184.35157	97.26699
26200.00000	97.10218	-186.39814	97.10218
26250.00000	97.02148	-189.22717	97.02148
26300.00000	96.80733	-192.14378	96.80733
26350.00000	96.70941	-194.75871	96.70941
26400.00000	96.57288	-197.60680	96.57288
26450.00000	96.36797	-200.79304	96.36797
26500.00000	96.16916	-202.95992	96.16916
26550.00000	95.98737	-205.05952	95.98737
26600.00000	95.73493	-207.54951	95.73493
26650.00000	95.55104	-210.17607	95.55104
26700.00000	95.34964	-212.60087	95.34964
26750.00000	95.06970	-215.03947	95.06970
26800.00000	94.77144	-217.86312	94.77144
26850.00000	94.55816	-219.71968	94.55816
26900.00000	94.21711	-222.43841	94.21711
26950.00000	93.88652	-224.54345	93.88652
27000.00000	93.57297	-226.41804	93.57297
27050.00000	93.31168	-228.29060	93.31168
27100.00000	92.96011	-230.47920	92.96011
27150.00000	92.59266	-231.80664	92.59266
27200.00000	92.31556	-233.99454	92.31556
27250.00000	91.97992	-235.36199	91.97992
27300.00000	91.74650	-236.53234	91.74650
27350.00000	91.38590	-238.12919	91.38590
27400.00000	91.04534	-238.76248	91.04534
27450.00000	90.80460	-240.55227	90.80460
27500.00000	90.47016	-241.59996	90.47016
27550.00000	90.16704	-242.18042	90.16704
27600.00000	89.86419	-243.59830	89.86419
27650.00000	89.56509	-244.13419	89.56509
27700.00000	89.26029	-244.97787	89.26029
27750.00000	89.03347	-245.32226	89.03347
27800.00000	88.67371	-246.34151	88.67371
27850.00000	88.48874	-247.28026	88.48874
27900.00000	88.30918	-246.78319	88.30918
27950.00000	87.96748	-247.03114	87.96748
28000.00000	87.74405	-246.62001	87.74405
28050.00000	87.50569	-247.32699	87.50569
28100.00000	87.29322	-247.38675	87.29322
28150.00000	87.07270	-248.12480	87.07270
28200.00000	86.93878	-248.38082	86.93878
28250.00000	86.62038	-248.91047	86.62038
28300.00000	86.45712	-249.41011	86.45712
28350.00000	86.33158	-248.60201	86.33158
28400.00000	86.07484	-248.52203	86.07484
28450.00000	85.90329	-248.23765	85.90329
28500.00000	85.79371	-248.04937	85.79371
28550.00000	85.64409	-247.31018	85.64409
28600.00000	85.72552	-246.78118	85.72552
28650.00000	85.57759	-247.11608	85.57759
28700.00000	85.46672	-247.01600	85.46672
28750.00000	85.34417	-246.32687	85.34417
28800.00000	85.25008	-246.65529	85.25008
28850.00000	85.12807	-246.01579	85.12807
28900.00000	85.10491	-246.09220	85.10491
28950.00000	85.06060	-245.98725	85.06060
29000.00000	85.13149	-245.25586	85.13149
29050.00000	85.07801	-244.30369	85.07801
29100.00000	85.13339	-243.57194	85.13339
29150.00000	85.04909	-244.03562	85.04909
29200.00000	85.37441	-243.80336	85.37441
29250.00000	85.22101	-243.56096	85.22101
29300.00000	85.40312	-242.90749	85.40312
29350.00000	85.32925	-243.30614	85.32925
29400.00000	85.50851	-242.66159	85.50851
29450.00000	85.59282	-243.33146	85.59282
29500.00000	85.74592	-243.48992	85.74592
29550.00000	85.76478	-243.43483	85.76478
29600.00000	85.85372	-243.32238	85.85372
29650.00000	86.03649	-243.09591	86.03649
29700.00000	86.27056	-243.53385	86.27056
29750.00000	86.35255	-244.18890	86.35255
29800.00000	86.38075	-243.84964	86.38075
29850.00000	86.59265	-244.13330	86.59265
29900.00000	86.74375	-244.52363	86.74375
29950.00000	87.01438	-245.16508	87.01438
30000.00000	87.18923	-245.73134	87.18923
30050.00000	87.22695	-246.39429	87.22695
30100.00000	87.47958	-246.77661	87.47958
30150.00000	87.65195	-247.50064	87.65195
30200.00000	87.82348	-248.32835	87.82348
30250.00000	88.01835	-249.01069	88.01835
30300.00000	88.24128	-249.48256	88.24128
30350.00000	88.48950	-250.75400	88.48950
30400.00000	88.62376	-251.47041	88.62376
30450.00000	88.87565	-252.23400	88.87565
30500.00000	89.06016	-254.09928	89.06016
30550.00000	89.17482	-255.68742	89.17482
30600.00000	89.38501	-256.14215	89.38501
30650.00000	89.60126	-257.42607	89.60126
30700.00000	89.77934	-258.27341	89.77934
30750.00000	90.01095	-259.46509	90.01095
30800.00000	90.17596	-260.60402	90.17596
30850.00000	90.28065	-262.34940	90.28065
30900.00000	90.54864	-263.52430	90.54864
30950.00000	90.69418	-265.04760	90.69418
31000.00000	90.91684	-266.70186	90.91684
31050.00000	91.11576	-268.06352	91.11576
31100.00000	91.31616	-269.71855	91.31616
31150.00000	91.49130	-271.61825	91.49130
31200.00000	91.66404	-273.51740	91.66404
31250.00000	91.90013	-275.28205	91.90013
31300.00000	92.08989	-276.62048	92.08989
31350.00000	92.23047	-278.56527	92.23047
31400.00000	92.41156	-280.37354	92.41156
31450.00000	92.59516	-282.47616	92.59516
31500.00000	92.77814	-284.35423	92.77814
31550.00000	92.94070	-287.01258	92.94070
31600.00000	93.10369	-288.75525	93.10369
31650.00000	93.22798	-291.24971	93.22798
31700.00000	93.37647	-293.21041	93.37647
31750.00000	93.48537	-296.00583	93.48537
31800.00000	93.53459	-298.35321	93.53459
31850.00000	93.64977	-300.31063	93.64977
31900.00000	93.75973	-302.69633	93.75973
31950.00000	93.88439	-305.08365	93.88439
32000.00000	93.85826	-307.46004	93.85826
32050.00000	93.91194	-309.75580	93.91194
32100.00000	93.96049	-311.96546	93.96049
32150.00000	93.91191	-314.65701	93.91191
32200.00000	93.88756	-316.71342	93.88756
32250.00000	93.98019	-318.52598	93.98019
32300.00000	93.92890	-320.52058	93.92890
32350.00000	93.90766	-322.95840	93.90766
32400.00000	93.84927	-325.14647	93.84927
32450.00000	93.90387	-326.80216	93.90387
32500.00000	93.81292	-329.01007	93.81292
32550.00000	93.73785	-330.55033	93.73785
32600.00000	93.69374	-332.46098	93.69374
32650.00000	93.62505	-333.63523	93.62505
32700.00000	93.61394	-335.25065	93.61394
32750.00000	93.39846	-337.21609	93.39846
32800.00000	93.39563	-338.24320	93.39563
32850.00000	93.39520	-339.35111	93.39520
32900.00000	93.24933	-340.69545	93.24933
32950.00000	93.21769	-341.10781	93.21769
33000.00000	93.25758	-342.93330	93.25758
33050.00000	93.26199	-343.93251	93.26199
33100.00000	93.21078	-345.00256	93.21078
33150.00000	93.12461	-346.19190	93.12461
33200.00000	93.04276	-346.77299	93.04276
33250.00000	93.05644	-347.46851	93.05644
33300.00000	93.00626	-347.32247	93.00626
33350.00000	92.99223	-348.04565	92.99223
33400.00000	93.05665	-348.41916	93.05665
33450.00000	93.03032	-349.18759	93.03032
33500.00000	93.10014	-349.28606	93.10014
33550.00000	93.11772	-349.28969	93.11772
33600.00000	93.24319	-349.61512	93.24319
33650.00000	93.31646	-350.40996	93.31646
33700.00000	93.36062	-350.25758	93.36062
33750.00000	93.44831	-350.54468	93.44831
33800.00000	93.62785	-350.93402	93.62785
33850.00000	93.72952	-351.16998	93.72952
33900.00000	93.85712	-351.42317	93.85712
33950.00000	94.01524	-351.40940	94.01524
34000.00000	94.16422	-351.42776	94.16422
34050.00000	94.27674	-351.85485	94.27674
34100.00000	94.60219	-352.27168	94.60219
34150.00000	94.75162	-351.97224	94.75162
34200.00000	95.04864	-352.58438	95.04864
34250.00000	95.35090	-352.84317	95.35090
34300.00000	95.56119	-354.05053	95.56119
34350.00000	95.90998	-354.82011	95.90998
34400.00000	96.09939	-355.13568	96.09939
34450.00000	96.44199	-355.76035	96.44199
34500.00000	96.72150	-356.86595	96.72150
34550.00000	96.99031	-357.82511	96.99031
34600.00000	97.31825	-358.60816	97.31825
34650.00000	97.66221	-360.17234	97.66221
34700.00000	97.80768	-360.91629	97.80768
34750.00000	98.08353	-361.50280	98.08353
34800.00000	98.36982	-362.28719	98.36982
34850.00000	98.73309	-363.41168	98.73309
34900.00000	99.10890	-364.45414	99.10890
34950.00000	99.44146	-365.62979	99.44146
35000.00000	99.76409	-366.92464	99.76409
35050.00000	100.12476	-368.33059	100.12476
35100.00000	100.51201	-369.38514	100.51201
35150.00000	100.86116	-370.80107	100.86116
35200.00000	101.28957	-372.38608	101.28957
35250.00000	101.66735	-373.61791	101.66735
35300.00000	102.01167	-375.35282	102.01167
35350.00000	102.42888	-377.20574	102.42888
35400.00000	102.84310	-379.23136	102.84310
35450.00000	103.26389	-381.46060	103.26389
35500.00000	103.61552	-383.34635	103.61552
35550.00000	103.99283	-385.23496	103.99283
35600.00000	104.43736	-387.39160	104.43736
35650.00000	104.86970	-390.02955	104.86970
35700.00000	105.23542	-392.68905	105.23542
35750.00000	105.60161	-395.14143	105.60161
35800.00000	105.96652	-397.91340	105.96652
35850.00000	106.33905	-400.56129	106.33905
35900.00000	106.70848	-403.43321	106.70848
35950.00000	107.04756	-406.01236	107.04756
36000.00000	107.43887	-409.02166	107.43887
36050.00000	107.77571	-412.06690	107.77571
36100.00000	108.10952	-415.18800	108.10952
36150.00000	108.42732	-418.29148	108.42732
36200.00000	108.74219	-421.43251	108.74219
36250.00000	109.02026	-424.65839	109.02026
36300.00000	109.31376	-427.84730	109.31376
36350.00000	109.58511	-431.08673	109.58511
36400.00000	109.84255	-434.28832	109.84255
36450.00000	110.11154	-437.35092	110.11154
36500.00000	110.35185	-440.59862	110.35185
36550.00000	110.61700	-443.63014	110.61700
36600.00000	110.85361	-447.06740	110.85361
36650.00000	111.08403	-450.10053	111.08403
36700.00000	111.32203	-453.00063	111.32203
36750.00000	111.56145	-456.15026	111.56145
36800.00000	111.82205	-459.28854	111.82205
36850.00000	112.04705	-462.35905	112.04705
36900.00000	112.27661	-465.51963	112.27661
36950.00000	112.51920	-468.46394	112.51920
37000.00000	112.77935	-471.40651	112.77935
37050.00000	113.02181	-474.45073	113.02181
37100.00000	113.27136	-477.48548	113.27136
37150.00000	113.53604	-480.40894	113.53604
37200.00000	113.81915	-483.49133	113.81915
37250.00000	114.11135	-486.65758	114.11135
37300.00000	114.39855	-489.82045	114.39855
37350.00000	114.69983	-493.05341	114.69983
37400.00000	115.01231	-496.46835	115.01231
37450.00000	115.32785	-499.86524	115.32785
37500.00000	115.63233	-503.30249	115.63233
37550.00000	115.97644	-506.88203	115.97644
37600.00000	116.33460	-510.66829	116.33460
37650.00000	116.67917	-514.67778	116.67917
37700.00000	117.01366	-518.75676	117.01366
37750.00000	117.34476	-523.03065	117.34476
37800.00000	117.67248	-527.53665	117.67248
37850.00000	117.99865	-532.16983	117.99865
37900.00000	118.28552	-537.05655	118.28552
37950.00000	118.55211	-542.10268	118.55211
38000.00000	118.78815	-547.22529	118.78815
38050.00000	118.99238	-552.54600	118.99238
38100.00000	119.15277	-557.79718	119.15277
38150.00000	119.29365	-563.11395	119.29365
38200.00000	119.39682	-568.38992	119.39682
38250.00000	119.46974	-573.58266	119.46974
38300.00000	119.54441	-578.73294	119.54441
38350.00000	119.60306	-583.88461	119.60306
38400.00000	119.62827	-588.89928	119.62827
38450.00000	119.65709	-593.92516	119.65709
38500.00000	119.67667	-598.88067	119.67667
38550.00000	119.68010	-603.92389	119.68010
38600.00000	119.67877	-608.83804	119.67877
38650.00000	119.66614	-613.88607	119.66614
38700.00000	119.63612	-618.89245	119.63612
38750.00000	119.58842	-623.80502	119.58842
38800.00000	119.52055	-628.75138	119.52055
38850.00000	119.45189	-633.72828	119.45189
38900.00000	119.36203	-638.62985	119.36203
38950.00000	119.26015	-643.49789	119.26015
39000.00000	119.14053	-648.42415	119.14053
39050.00000	119.00644	-653.30205	119.00644
39100.00000	118.85156	-658.19561	118.85156
39150.00000	118.67035	-663.03183	118.67035
39200.00000	118.46542	-667.71473	118.46542
39250.00000	118.25157	-672.26692	118.25157
39300.00000	118.01990	-676.69730	118.01990
39350.00000	117.78538	-681.09059	117.78538
39400.00000	117.54823	-685.36190	117.54823
39450.00000	117.32329	-689.55465	117.32329
39500.00000	117.07322	-693.74848	117.07322
39550.00000	116.82747	-697.82291	116.82747
39600.00000	116.56443	-701.99444	116.56443
39650.00000	116.28416	-706.06123	116.28416
39700.00000	115.98814	-710.03934	115.98814
39750.00000	115.66611	-713.78433	115.66611
39800.00000	115.34034	-717.49500	115.34034
39850.00000	115.01811	-721.14748	115.01811
39900.00000	114.66667	-724.55671	114.66667
39950.00000	114.34361	-727.82479	114.34361
40000.00000	113.99608	-731.05477	113.99608
40050.00000	113.65200	-734.07111	113.65200
40100.00000	113.31351	-737.07326	113.31351
40150.00000	112.98017	-740.01874	112.98017
40200.00000	112.64235	-742.65995	112.64235
40250.00000	112.32251	-745.32868	112.32251
40300.00000	111.99442	-747.75076	111.99442
40350.00000	111.67936	-750.27765	111.67936
40400.00000	111.37159	-752.73887	111.37159
40450.00000	111.04624	-755.10253	111.04624
40500.00000	110.73252	-757.32981	110.73252
40550.00000	110.42704	-759.42861	110.42704
40600.00000	110.11978	-761.48706	110.11978
40650.00000	109.82319	-763.70638	109.82319
40700.00000	109.50845	-765.62381	109.50845
40750.00000	109.21777	-767.41081	109.21777
40800.00000	108.92881	-769.22368	108.92881
40850.00000	108.64457	-770.63240	108.64457
40900.00000	108.37240	-772.34692	108.37240
40950.00000	108.06874	-773.90137	108.06874
41000.00000	107.81818	-775.25684	107.81818
41050.00000	107.52335	-776.70661	107.52335
41100.00000	107.29085	-777.73920	107.29085
41150.00000	107.02846	-778.92044	107.02846
41200.00000	106.82888	-779.98532	106.82888
41250.00000	106.61402	-780.67012	106.61402
41300.00000	106.42820	-781.59376	106.42820
41350.00000	106.26685	-782.32695	106.26685
41400.00000	106.10944	-783.07595	106.10944
41450.00000	106.00323	-783.61109	106.00323
41500.00000	105.87900	-784.10781	105.87900
41550.00000	105.79830	-784.72865	105.79830
41600.00000	105.72869	-785.33694	105.72869
41650.00000	105.73495	-785.74732	105.73495
41700.00000	105.72723	-786.69145	105.72723
41750.00000	105.78882	-787.33407	105.78882
41800.00000	105.78951	-788.54167	105.78951
41850.00000	105.84398	-789.71841	105.84398
41900.00000	105.90803	-790.81803	105.90803
41950.00000	105.98126	-792.45247	105.98126
42000.00000	106.07063	-793.59875	106.07063
42050.00000	106.14949	-795.32887	106.14949
42100.00000	106.18869	-796.92947	106.18869
42150.00000	106.21839	-798.88348	106.21839
42200.00000	106.29734	-800.46754	106.29734
42250.00000	106.35578	-802.04046	106.35578
42300.00000	106.40869	-803.89582	106.40869
42350.00000	106.45273	-805.94471	106.45273
42400.00000	106.52270	-807.74580	106.52270
42450.00000	106.56412	-809.82051	106.56412
42500.00000	106.58391	-811.64040	106.58391
42550.00000	106.62075	-813.53132	106.62075
42600.00000	106.65136	-815.58924	106.65136
42650.00000	106.70527	-817.77130	106.70527
42700.00000	106.67442	-819.54751	106.67442
42750.00000	106.73956	-821.91308	106.73956
42800.00000	106.74491	-823.81017	106.74491
42850.00000	106.79805	-826.13193	106.79805
42900.00000	106.84869	-828.43910	106.84869
42950.00000	106.89888	-830.26528	106.89888
43000.00000	106.90715	-832.28203	106.90715
43050.00000	106.94058	-834.37309	106.94058
43100.00000	106.99872	-836.77899	106.99872
43150.00000	107.03321	-838.84688	107.03321
43200.00000	107.09269	-841.19480	107.09269
43250.00000	107.14267	-843.44256	107.14267
43300.00000	107.19990	-845.51644	107.19990
43350.00000	107.21228	-847.91483	107.21228
43400.00000	107.25978	-850.28361	107.25978
43450.00000	107.28630	-852.76234	107.28630
43500.00000	107.28935	-854.96553	107.28935
43550.00000	107.34541	-857.36954	107.34541
43600.00000	107.31433	-859.82958	107.31433
43650.00000	107.36633	-862.36138	107.36633
43700.00000	107.36788	-865.12604	107.36788
43750.00000	107.35147	-867.90684	107.35147
43800.00000	107.34004	-870.59582	107.34004
43850.00000	107.34188	-873.10611	107.34188
43900.00000	107.29084	-876.14229	107.29084
43950.00000	107.29305	-878.73092	107.29305
44000.00000	107.20770	-881.67320	107.20770
44050.00000	107.18539	-884.49622	107.18539
44100.00000	107.15848	-886.72962	107.15848
44150.00000	107.10113	-889.34955	107.10113
44200.00000	107.00475	-892.06826	107.00475
44250.00000	106.91774	-894.63773	106.91774
44300.00000	106.83811	-897.18423	106.83811
44350.00000	106.71567	-899.46046	106.71567
44400.00000	106.66671	-901.89536	106.66671
44450.00000	106.50518	-903.84181	106.50518
44500.00000	106.38657	-906.02012	106.38657
44550.00000	106.29035	-908.20232	106.29035
44600.00000	106.16834	-910.25192	106.16834
44650.00000	106.01837	-912.53802	106.01837
44700.00000	105.84681	-914.61659	105.84681
44750.00000	105.70673	-916.02341	105.70673
44800.00000	105.62811	-918.53082	105.62811
44850.00000	105.43473	-919.87031	105.43473
44900.00000	105.40508	-921.75721	105.40508
44950.00000	105.34585	-923.56647	105.34585
45000.00000	105.29778	-924.98809	105.29778
45050.00000	105.23921	-926.31575	105.23921
45100.00000	105.13912	-927.79973	105.13912
45150.00000	105.05450	-929.41877	105.05450
45200.00000	105.09785	-931.20614	105.09785
45250.00000	105.10903	-932.26254	105.10903
45300.00000	105.23578	-933.86592	105.23578
45350.00000	105.11061	-935.76098	105.11061
45400.00000	105.09987	-938.48696	105.09987
45450.00000	105.00288	-939.74416	105.00288
45500.00000	105.02467	-941.44019	105.02467
45550.00000	104.96489	-943.27328	104.96489
45600.00000	104.92316	-944.93500	104.92316
45650.00000	105.00740	-946.72633	105.00740
45700.00000	104.94531	-948.51036	104.94531
45750.00000	104.97219	-950.61055	104.97219
45800.00000	104.94088	-952.52981	104.94088
45850.00000	104.85449	-955.23312	104.85449
45900.00000	104.77970	-957.26965	104.77970
45950.00000	104.61392	-959.68368	104.61392
46000.00000	104.52245	-961.10344	104.52245
46050.00000	104.44722	-962.99421	104.44722
46100.00000	104.24030	-964.98915	104.24030
46150.00000	104.26579	-964.87978	104.26579
46200.00000	104.10048	-966.84644	104.10048
46250.00000	104.07112	-967.84223	104.07112
46300.00000	103.98326	-968.66505	103.98326
46350.00000	103.84710	-969.44522	103.84710
46400.00000	103.84154	-970.48748	103.84154
46450.00000	103.80505	-970.15370	103.80505
46500.00000	103.92940	-972.04516	103.92940
46550.00000	103.89488	-972.17739	103.89488
46600.00000	103.95590	-972.58679	103.95590
46650.00000	104.00621	-972.86002	104.00621
46700.00000	104.14850	-974.33420	104.14850
46750.00000	104.26772	-975.49303	104.26772
46800.00000	104.35157	-976.15208	104.35157
46850.00000	104.42101	-977.21314	104.42101
46900.00000	104.59143	-978.09431	104.59143
46950.00000	104.84913	-978.78233	104.84913
47000.00000	104.96182	-980.46389	104.96182
47050.00000	105.27099	-981.36067	105.27099
47100.00000	105.40207	-982.43768	105.40207
47150.00000	105.66175	-983.95638	105.66175
47200.00000	105.93086	-985.69026	105.93086
47250.00000	106.09289	-986.54832	106.09289
47300.00000	106.34502	-988.71220	106.34502
47350.00000	106.61517	-990.07994	106.61517
47400.00000	106.86661	-991.81731	106.86661
47450.00000	107.05004	-993.68956	107.05004
47500.00000	107.32848	-994.92648	107.32848
47550.00000	107.54064	-997.57254	107.54064
47600.00000	107.86015	-1000.44772	107.86015
47650.00000	108.10616	-1001.89809	108.10616
47700.00000	108.35140	-1004.13240	108.35140
47750.00000	108.61890	-1006.78495	108.61890
47800.00000	108.80053	-1009.13235	108.80053
47850.00000	109.09643	-1011.42939	109.09643
47900.00000	109.41386	-1014.07042	109.41386
47950.00000	109.75499	-1016.90517	109.75499
48000.00000	109.96703	-1020.51062	109.96703
48050.00000	110.31901	-1023.08633	110.31901
48100.00000	110.51946	-1026.28062	110.51946
48150.00000	110.79305	-1029.67280	110.79305
48200.00000	111.03971	-1033.21189	111.03971
48250.00000	111.18675	-1036.50481	111.18675
48300.00000	111.51043	-1040.00219	111.51043
48350.00000	111.72634	-1043.33914	111.72634
48400.00000	111.84627	-1047.38069	111.84627
48450.00000	112.07340	-1051.11046	112.07340
48500.00000	112.24174	-1054.57974	112.24174
48550.00000	112.41723	-1058.32986	112.41723
48600.00000	112.53556	-1063.62725	112.53556
48650.00000	112.60927	-1067.06790	112.60927
48700.00000	112.68829	-1070.81284	112.68829
48750.00000	112.81976	-1075.38184	112.81976
48800.00000	112.84186	-1078.80694	112.84186
48850.00000	112.79730	-723.72230	112.79730
48900.00000	112.95605	-367.80457	112.95605
48950.00000	112.85230	-11.57506	112.85230
49000.00000	112.92003	344.05573	112.92003
49050.00000	112.95844	699.74959	112.95844
49100.00000	112.92925	1056.43993	112.92925
49150.00000	112.90775	1411.72961	112.90775
49200.00000	112.75250	1768.75874	112.75250
49250.00000	112.77233	2124.96980	112.77233
49300.00000	112.71470	2481.92518	112.71470
49350.00000	112.56797	2837.94347	112.56797
49400.00000	112.32001	3193.69289	112.32001
49450.00000	112.33753	3550.52790	112.33753
49500.00000	112.19788	3907.68414	112.19788
49550.00000	112.07169	4264.03586	112.07169
49600.00000	112.00046	4620.74434	112.00046
49650.00000	111.92567	4976.42355	111.92567
49700.00000	111.64815	5333.58913	111.64815
49750.00000	111.54679	5691.10758	111.54679
49800.00000	111.44310	5688.73950	111.44310
49850.00000	111.40839	6403.74652	111.40839
49900.00000	111.33627	6401.69050	111.33627
49950.00000	111.06818	6759.07837	111.06818
50000.00000	111.04276	6755.96011	111.04276
50050.00000	110.88241	6753.34125	110.88241
50100.00000	110.74496	6750.34679	110.74496
50150.00000	110.73429	6747.39268	110.73429
50200.00000	110.60296	6744.42373	110.60296
50250.00000	110.39803	6742.14597	110.39803
50300.00000	110.38750	6739.21685	110.38750
50350.00000	110.22327	6737.07758	110.22327
50400.00000	110.23507	6734.13995	110.23507
50450.00000	110.06921	6731.47621	110.06921
50500.00000	109.92755	6729.88672	109.92755
50550.00000	109.78101	6726.67206	109.78101
50600.00000	109.81455	6723.55610	109.81455
50650.00000	109.75982	6721.49081	109.75982
50700.00000	109.58849	6717.81717	109.58849
50750.00000	109.45173	6715.41161	109.45173
50800.00000	109.34126	6711.96417	109.34126
50850.00000	109.27215	6709.47939	109.27215
50900.00000	109.07167	6705.93377	109.07167
50950.00000	109.01272	6702.73448	109.01272
51000.00000	108.99849	6699.04729	108.99849
51050.00000	108.74731	6696.86896	108.74731
51100.00000	108.50697	6693.24365	108.50697
51150.00000	108.28107	6690.09859	108.28107
51200.00000	107.98957	6687.06650	107.98957
51250.00000	107.79013	6684.52218	107.79013
51300.00000	107.56931	6681.32337	107.56931
51350.00000	107.10008	6679.75121	107.10008
51400.00000	106.85919	6676.33118	106.85919
51450.00000	106.41372	6675.31495	106.41372
51500.00000	106.20566	6673.77250	106.20566
51550.00000	105.77308	6671.90371	105.77308
51600.00000	105.42207	6671.04804	105.42207
51650.00000	104.95584	6669.86382	104.95584
51700.00000	104.73089	6669.17934	104.73089
51750.00000	104.43233	6669.14210	104.43233
51800.00000	104.22591	6668.86761	104.22591
51850.00000	104.15226	6668.72684	104.15226
51900.00000	103.93632	6668.93754	103.93632
51950.00000	103.68610	6668.86322	103.68610
52000.00000	103.58953	6669.43509	103.58953
52050.00000	103.73621	6668.90635	103.73621
52100.00000	103.71166	6670.07366	103.71166
52150.00000	103.64083	6670.73796	103.64083
52200.00000	103.76652	6669.53201	103.76652
52250.00000	103.98626	6668.54103	103.98626
52300.00000	103.76346	6669.77179	103.76346
52350.00000	104.18494	6669.24224	104.18494
52400.00000	104.30900	6667.09534	104.30900
52450.00000	104.56570	6667.22756	104.56570
52500.00000	104.68701	6665.87063	104.68701
52550.00000	104.93196	6665.72560	104.93196
52600.00000	104.98467	6664.09757	104.98467
52650.00000	105.30113	6663.05825	105.30113
52700.00000	105.48463	6661.47959	105.48463
52750.00000	105.78123	6660.47847	105.78123
52800.00000	106.07995	6658.72419	106.07995
52850.00000	106.13177	6656.84550	106.13177
52900.00000	106.46159	6654.69524	106.46159
52950.00000	106.73018	6652.94976	106.73018
53000.00000	106.88837	6650.53055	106.88837
53050.00000	107.08122	6648.08109	107.08122
53100.00000	107.42624	6646.11676	107.42624
53150.00000	107.71691	6644.10879	107.71691
53200.00000	107.77149	6640.97425	107.77149
53250.00000	108.05159	6639.03581	108.05159
53300.00000	108.21794	6635.32503	108.21794
53350.00000	108.34732	6633.14836	108.34732
53400.00000	108.63525	6630.52155	108.63525
53450.00000	108.82562	6626.88622	108.82562
53500.00000	108.97847	6624.24591	108.97847
53550.00000	109.22328	6620.83641	109.22328
53600.00000	109.34118	6616.67035	109.34118
53650.00000	109.50142	6613.83878	109.50142
53700.00000	109.65848	6609.97266	109.65848
53750.00000	109.77927	6606.05252	109.77927
53800.00000	109.84186	6603.45214	109.84186
53850.00000	109.84296	6599.80540	109.84296
53900.00000	109.92099	6596.63677	109.92099
53950.00000	110.01656	6592.56745	110.01656
54000.00000	110.03792	6589.20136	110.03792
54050.00000	110.08421	6585.25656	110.08421
54100.00000	110.09924	6581.75926	110.09924
54150.00000	110.14640	6578.06494	110.14640
54200.00000	109.98609	6575.27028	109.98609
54250.00000	110.01945	6570.86282	110.01945
54300.00000	109.92235	6567.29547	109.92235
54350.00000	109.97754	6563.91321	109.97754
54400.00000	110.04280	6561.21242	110.04280
54450.00000	109.94912	6557.54928	109.94912
54500.00000	109.80565	6554.42797	109.80565
54550.00000	109.75255	6551.14080	109.75255
54600.00000	109.68487	6548.22168	109.68487
54650.00000	109.68462	6544.17021	109.68462
54700.00000	109.54219	6541.50755	109.54219
54750.00000	109.61222	6538.64357	109.61222
54800.00000	109.45285	6534.94956	109.45285
54850.00000	109.30790	6532.00911	109.30790
54900.00000	109.33502	6528.38940	109.33502
54950.00000	109.21949	6526.29878	109.21949
55000.00000	109.26738	6522.99969	109.26738
55050.00000	109.11592	6519.48960	109.11592
55100.00000	109.08687	6516.61841	109.08687
55150.00000	109.03581	6513.07112	109.03581
55200.00000	108.90583	6509.76848	108.90583
55250.00000	108.88455	6506.61324	108.88455
55300.00000	108.83381	6503.52836	108.83381
55350.00000	108.72814	6500.41831	108.72814
55400.00000	108.61883	6496.94716	108.61883
55450.00000	108.49933	6493.91924	108.49933
55500.00000	108.40564	6490.13229	108.40564
55550.00000	108.26956	6486.88827	108.26956
55600.00000	108.12007	6483.29803	108.12007
55650.00000	108.01184	6480.12157	108.01184
55700.00000	107.81543	6476.38070	107.81543
55750.00000	107.65975	6473.27809	107.65975
55800.00000	107.49938	6470.33594	107.49938
55850.00000	107.24139	6466.87966	107.24139
55900.00000	107.01702	6463.78859	107.01702
55950.00000	106.78107	6461.02613	106.78107
56000.00000	106.57903	6457.85548	106.57903
56050.00000	106.30934	6455.66424	106.30934
56100.00000	106.00254	6452.52944	106.00254
56150.00000	105.80657	6450.18028	105.80657
56200.00000	105.54665	6447.79526	105.54665
56250.00000	105.30713	6445.63752	105.30713
56300.00000	105.03247	6443.45531	105.03247
56350.00000	104.84647	6441.15499	104.84647
56400.00000	104.64659	6439.75241	104.64659
56450.00000	104.40007	6437.43049	104.40007
56500.00000	104.19733	6435.66606	104.19733
56550.00000	104.03610	6434.04495	104.03610
56600.00000	103.89271	6432.15410	103.89271
56650.00000	103.75090	6430.52582	103.75090
56700.00000	103.64587	6428.67705	103.64587
56750.00000	103.47431	6426.77938	103.47431
56800.00000	103.38920	6425.26390	103.38920
56850.00000	103.32120	6423.03184	103.32120
56900.00000	103.18781	6421.58012	103.18781
56950.00000	103.10778	6419.49137	103.10778
57000.00000	102.96569	6417.33033	102.96569
57050.00000	102.87891	6415.72442	102.87891
57100.00000	102.86832	6413.54430	102.86832
57150.00000	102.69248	6410.85420	102.69248
57200.00000	102.68707	6409.01219	102.68707
57250.00000	102.54479	6406.69383	102.54479
57300.00000	102.45845	6404.38856	102.45845
57350.00000	102.30710	6402.68479	102.30710
57400.00000	102.14891	6400.70705	102.14891
57450.00000	101.98101	6398.53306	101.98101
57500.00000	101.86310	6396.39820	101.86310
57550.00000	101.77971	6394.23012	101.77971
57600.00000	101.52324	6392.66296	101.52324
57650.00000	101.41155	6391.02800	101.41155
57700.00000	101.23488	6388.81718	101.23488
57750.00000	101.14169	6387.45831	101.14169
57800.00000	100.95218	6385.93477	100.95218
57850.00000	100.87102	6384.35983	100.87102
57900.00000	100.72906	6382.81362	100.72906
57950.00000	100.67984	6380.90186	100.67984
58000.00000	100.56325	6379.94485	100.56325
58050.00000	100.47252	6378.43576	100.47252
58100.00000	100.38325	6376.39622	100.38325
58150.00000	100.28514	6375.67850	100.28514
58200.00000	100.19085	6374.04826	100.19085
58250.00000	100.09646	6372.26341	100.09646
58300.00000	100.03950	6370.90000	100.03950
58350.00000	99.91121	6369.54666	99.91121
58400.00000	99.81231	6368.07213	99.81231
58450.00000	99.79730	6367.13055	99.79730
58500.00000	99.61793	6365.50246	99.61793
58550.00000	99.62812	6364.54055	99.62812
58600.00000	99.50467	6362.83592	99.50467
58650.00000	99.42279	6361.96595	99.42279
58700.00000	99.39853	6360.99881	99.39853
58750.00000	99.36383	6359.96928	99.36383
58800.00000	99.27900	6359.17810	99.27900
58850.00000	99.28778	6358.04645	99.28778
58900.00000	99.20916	6356.85065	99.20916
58950.00000	99.21878	6356.26861	99.21878
59000.00000	99.16554	6355.78630	99.16554
59050.00000	99.17715	6354.72882	99.17715
59100.00000	99.10615	6354.28828	99.10615
59150.00000	99.19026	6354.05659	99.19026
59200.00000	99.23523	6353.75356	99.23523
59250.00000	99.29636	6353.61171	99.29636
59300.00000	99.46017	6353.60381	99.46017
59350.00000	99.55546	6353.29643	99.55546
59400.00000	99.81045	6353.56830	99.81045
59450.00000	99.99806	6353.22993	99.99806
59500.00000	100.31996	6353.30126	100.31996
59550.00000	100.71999	6352.72651	100.71999
59600.00000	101.11092	6352.21889	101.11092
59650.00000	101.55860	6351.00236	101.55860
59700.00000	102.09449	6349.87348	102.09449
59750.00000	102.58455	6348.24462	102.58455
59800.00000	103.08956	6345.77936	103.08956
59850.00000	103.65054	6343.18516	103.65054
59900.00000	104.14064	6339.86703	104.14064
59950.00000	104.64947	6336.54989	104.64947
60000.00000	105.13951	6332.29087	105.13951
60050.00000	105.53503	6327.84510	105.53503
60100.00000	105.87822	6323.34508	105.87822
60150.00000	106.18677	6318.32671	106.18677
60200.00000	106.44057	6312.99373	106.44057
60250.00000	106.62013	6307.95243	106.62013
60300.00000	106.73907	6302.68100	106.73907
60350.00000	106.78816	6297.61732	106.78816
60400.00000	106.79342	6292.47801	106.79342
60450.00000	106.77637	6287.67382	106.77637
60500.00000	106.70507	6282.87078	106.70507
60550.00000	106.59268	6278.41306	106.59268
60600.00000	106.43597	6274.32229	106.43597
60650.00000	106.30252	6270.16217	106.30252
60700.00000	106.14231	6266.38780	106.14231
60750.00000	105.98297	6262.54250	105.98297
60800.00000	105.81182	6259.21171	105.81182
60850.00000	105.66201	6255.55867	105.66201
60900.00000	105.48193	6252.54467	105.48193
60950.00000	105.32317	6249.62468	105.32317
61000.00000	105.18441	6246.44645	105.18441
61050.00000	105.05601	6243.92248	105.05601
61100.00000	104.92773	6241.03830	104.92773
61150.00000	104.79601	6238.35211	104.79601
61200.00000	104.69645	6235.59844	104.69645
61250.00000	104.58549	6232.99489	104.58549
61300.00000	104.48123	6230.23428	104.48123
61350.00000	104.34764	6227.98401	104.34764
61400.00000	104.27676	6225.41080	104.27676
61450.00000	104.20318	6222.98980	104.20318
61500.00000	104.12428	6220.42266	104.12428
61550.00000	104.05898	6217.88252	104.05898
61600.00000	103.97119	6215.19937	103.97119
61650.00000	103.91726	6212.92234	103.91726
61700.00000	103.88789	6210.59769	103.88789
61750.00000	103.82556	6208.42820	103.82556
61800.00000	103.81663	6205.77335	103.81663
61850.00000	103.75320	6203.45902	103.75320
61900.00000	103.74847	6201.15867	103.74847
61950.00000	103.74134	6198.85378	103.74134
62000.00000	103.76001	6196.09966	103.76001
62050.00000	103.75774	6193.84932	103.75774
62100.00000	103.80658	6191.11656	103.80658
62150.00000	103.80164	6188.31214	103.80164
62200.00000	103.79615	6185.36268	103.79615
62250.00000	103.81734	6182.50145	103.81734
62300.00000	103.83724	6179.69179	103.83724
62350.00000	103.80632	6176.54228	103.80632
62400.00000	103.78152	6173.64424	103.78152
62450.00000	103.77203	6170.45359	103.77203
62500.00000	103.72435	6167.62824	103.72435
62550.00000	103.66137	6164.59771	103.66137
62600.00000	103.63346	6161.49283	103.63346
62650.00000	103.54850	6158.29542	103.54850
62700.00000	103.50911	6155.48465	103.50911
62750.00000	103.40747	6152.68102	103.40747
62800.00000	103.33372	6150.06064	103.33372
62850.00000	103.29445	6146.97949	103.29445
62900.00000	103.18166	6144.16321	103.18166
62950.00000	103.11971	6141.27679	103.11971
63000.00000	103.07777	6138.63377	103.07777
63050.00000	103.00471	6136.21256	103.00471
63100.00000	102.92594	6133.00853	102.92594
63150.00000	102.94587	6130.80827	102.94587
63200.00000	102.85099	6128.05837	102.85099
63250.00000	102.83905	6125.76188	102.83905
63300.00000	102.83615	6122.77652	102.83615
63350.00000	102.78525	6120.19467	102.78525
63400.00000	102.74215	6117.54615	102.74215
63450.00000	102.72390	6114.31564	102.72390
63500.00000	102.74494	6111.34027	102.74494
63550.00000	102.73821	6107.83457	102.73821
63600.00000	102.67270	6104.21510	102.67270
63650.00000	102.61913	6101.01280	102.61913
63700.00000	102.43202	6097.22152	102.43202
63750.00000	102.27240	6094.14884	102.27240
63800.00000	101.97602	6091.39717	101.97602
63850.00000	101.80984	6088.70254	101.80984
63900.00000	101.73082	6087.11109	101.73082
63950.00000	101.54042	6084.84495	101.54042
64000.00000	101.48489	6083.18634	101.48489
64050.00000	101.48692	6081.28917	101.48692
64100.00000	101.57900	6078.74307	101.57900
64150.00000	101.60376	6076.31121	101.60376
64200.00000	101.50564	6073.82039	101.50564
64250.00000	101.51561	6071.26289	101.51561
64300.00000	101.54520	6068.03056	101.54520
64350.00000	101.50667	6064.74168	101.50667
64400.00000	101.50382	6062.08117	101.50382
64450.00000	101.44584	6059.91637	101.44584
64500.00000	101.45028	6056.63690	101.45028
64550.00000	101.48824	6053.38405	101.48824
64600.00000	101.52751	6050.26271	101.52751
64650.00000	101.44786	6047.32215	101.44786
64700.00000	101.45702	6043.37029	101.45702
64750.00000	101.45156	6040.48850	101.45156
64800.00000	101.38411	6036.66112	101.38411
64850.00000	101.32459	6032.95619	101.32459
64900.00000	101.22382	6029.46785	101.22382
64950.00000	101.14679	6025.98253	101.14679
65000.00000	101.11182	6022.60253	101.11182
65050.00000	100.92314	6018.79557	100.92314
65100.00000	100.81081	6014.95020	100.81081
65150.00000	100.69763	6011.33751	100.69763
65200.00000	100.45128	6007.59622	100.45128
65250.00000	100.25612	6004.11978	100.25612
65300.00000	100.07006	6000.89296	100.07006
65350.00000	99.73574	5997.73102	99.73574
65400.00000	99.52786	5994.26257	99.52786
65450.00000	99.32221	5990.89727	99.32221
65500.00000	99.05686	5988.70377	99.05686
65550.00000	98.81836	5986.09621	98.81836
65600.00000	98.51812	5983.14320	98.51812
65650.00000	98.37439	5980.46066	98.37439
65700.00000	98.06229	5977.68676	98.06229
65750.00000	97.94867	5975.59068	97.94867
65800.00000	97.72122	5973.25439	97.72122
65850.00000	97.52802	5970.52754	97.52802
65900.00000	97.32251	5967.65037	97.32251
65950.00000	97.20174	5965.36745	97.20174
66000.00000	96.95278	5963.30154	96.95278
66050.00000	96.71209	5960.52464	96.71209
66100.00000	96.52311	5957.79736	96.52311
66150.00000	96.36818	5955.74471	96.36818
66200.00000	96.09024	5953.06355	96.09024
66250.00000	95.86903	5951.34277	95.86903
66300.00000	95.65683	5949.19202	95.65683
66350.00000	95.53251	5947.77843	95.53251
66400.00000	95.45051	5945.13003	95.45051
66450.00000	95.19712	5942.93780	95.19712
66500.00000	95.04604	5940.62112	95.04604
66550.00000	94.80972	5938.18290	94.80972
66600.00000	94.63010	5937.16391	94.63010
66650.00000	94.52652	5934.68801	94.52652
66700.00000	94.35746	5932.30231	94.35746
66750.00000	94.10790	5930.35103	94.10790
66800.00000	94.06505	5928.90889	94.06505
66850.00000	93.85362	5926.42325	93.85362
66900.00000	93.72095	5925.14539	93.72095
66950.00000	93.72211	5922.55900	93.72211
67000.00000	93.63451	5920.70779	93.63451
67050.00000	93.59349	5919.05163	93.59349
67100.00000	93.50609	5916.60238	93.50609
67150.00000	93.57577	5914.40688	93.57577
67200.00000	93.42469	5912.36466	93.42469
67250.00000	93.31270	5908.75652	93.31270
67300.00000	93.31886	5906.71162	93.31886
67350.00000	93.19997	5904.77794	93.19997
67400.00000	93.15070	5900.92064	93.15070
67450.00000	93.01085	5898.17319	93.01085
67500.00000	92.85611	5896.19308	92.85611
67550.00000	92.80969	5892.45603	92.80969
67600.00000	92.69767	5889.52189	92.69767
67650.00000	92.45634	5886.29292	92.45634
67700.00000	92.40758	5884.27509	92.40758
67750.00000	92.24945	5880.59613	92.24945
67800.00000	91.99369	5877.40663	91.99369
67850.00000	91.77247	5874.12140	91.77247
67900.00000	91.55771	5871.42429	91.55771
67950.00000	91.23253	5869.18683	91.23253
68000.00000	90.98730	5865.75612	90.98730
68050.00000	90.52910	5862.78056	90.52910
68100.00000	90.32304	5860.46074	90.32304
68150.00000	90.06204	5857.59818	90.06204
68200.00000	89.58138	5856.56743	89.58138
68250.00000	89.20347	5853.45110	89.20347
68300.00000	88.97136	5853.41156	88.97136
68350.00000	88.45043	5851.24787	88.45043
68400.00000	88.19906	5850.79073	88.19906
68450.00000	87.72042	5849.40849	87.72042
68500.00000	87.55620	5849.55595	87.55620
68550.00000	87.41175	5848.52094	87.41175
68600.00000	87.14997	5848.35502	87.14997
68650.00000	87.09667	5849.25419	87.09667
68700.00000	87.01865	5847.82216	87.01865
68750.00000	87.07309	5846.46816	87.07309
68800.00000	87.04621	5845.60892	87.04621
68850.00000	87.14046	5846.36462	87.14046
68900.00000	87.03298	5846.20745	87.03298
68950.00000	87.08759	5843.92399	87.08759
69000.00000	87.26252	5842.35763	87.26252
69050.00000	87.29856	5841.12178	87.29856
69100.00000	87.46325	5839.46080	87.46325
69150.00000	87.60167	5837.96191	87.60167
69200.00000	87.73824	5836.24100	87.73824
69250.00000	87.89375	5833.45626	87.89375
69300.00000	88.03914	5830.51352	88.03914
69350.00000	88.09393	5828.37050	88.09393
69400.00000	88.19202	5825.60026	88.19202
69450.00000	88.31396	5822.19980	88.31396
69500.00000	88.43238	5819.22128	88.43238
69550.00000	88.53643	5815.87488	88.53643
69600.00000	88.35398	5812.01396	88.35398
69650.00000	88.36992	5808.92982	88.36992
69700.00000	88.28796	5805.13779	88.28796
69750.00000	88.37664	5801.78079	88.37664
69800.00000	88.22345	5797.84961	88.22345
69850.00000	87.99810	5795.09593	87.99810
69900.00000	87.87026	5791.57332	87.87026
69950.00000	87.93303	5788.13834	87.93303
70000.00000	87.69416	5785.30643	87.69416
70050.00000	87.54790	5782.11545	87.54790
70100.00000	87.48655	5778.89074	87.48655
70150.00000	87.29894	5774.27758	87.29894
70200.00000	87.09639	5771.93128	87.09639
70250.00000	86.96224	5768.12440	86.96224
70300.00000	86.71188	5766.05929	86.71188
70350.00000	86.52427	5763.19731	86.52427
70400.00000	86.29122	5759.36923	86.29122
70450.00000	85.97829	5757.23521	85.97829
70500.00000	85.67259	5753.49514	85.67259
70550.00000	85.48241	5750.85428	85.48241
70600.00000	85.09678	5748.29901	85.09678
70650.00000	84.96353	5745.65632	84.96353
70700.00000	84.69128	5744.23207	84.69128
70750.00000	84.60899	5742.40052	84.60899
70800.00000	84.25834	5740.61375	84.25834
70850.00000	84.18141	5738.49911	84.18141
70900.00000	83.95431	5736.69417	83.95431
70950.00000	84.00603	5735.04064	84.00603
71000.00000	84.06818	5734.76257	84.06818
71050.00000	84.20597	5729.70672	84.20597
71100.00000	84.43939	5728.03929	84.43939
71150.00000	84.53674	5722.78059	84.53674
71200.00000	84.09386	5719.27155	84.09386
71250.00000	84.38016	5715.41078	84.38016
71300.00000	84.05789	5713.19955	84.05789
71350.00000	83.98705	5708.85384	83.98705
71400.00000	83.98616	5703.50675	83.98616
71450.00000	83.88701	5700.18308	83.88701
71500.00000	83.36897	5695.64197	83.36897
71550.00000	83.60586	5691.56058	83.60586
71600.00000	83.40697	5687.50287	83.40697
71650.00000	83.17779	5680.84502	83.17779
71700.00000	82.94321	5676.98523	82.94321
71750.00000	82.87757	5669.80636	82.87757
71800.00000	82.27077	5667.47390	82.27077
71850.00000	81.77349	5659.74039	81.77349
71900.00000	81.41421	5654.44946	81.41421
71950.00000	80.73199	5648.63967	80.73199
72000.00000	80.28541	5647.21676	80.28541
72050.00000	79.40751	5644.67531	79.40751
72100.00000	78.95860	5642.12249	78.95860
72150.00000	79.24162	5640.79313	79.24162
72200.00000	78.44457	5635.24549	78.44457
72250.00000	78.87102	5632.05821	78.87102
72300.00000	78.36192	5628.86498	78.36192
72350.00000	78.05170	5622.43588	78.05170
72400.00000	78.97027	5618.56269	78.97027
72450.00000	78.42139	5612.59972	78.42139
72500.00000	78.77014	5607.49697	78.77014
72550.00000	78.79473	5602.42107	78.79473
72600.00000	78.83801	5597.81527	78.83801
72650.00000	78.80227	5586.90667	78.80227
72700.00000	79.60349	5580.52123	79.60349
72750.00000	79.11873	5572.39588	79.11873
72800.00000	79.37536	5565.02025	79.37536
72850.00000	79.46767	5552.60237	79.46767
72900.00000	79.33286	5543.52735	79.33286
72950.00000	79.57107	5539.77369	79.57107
73000.00000	79.29210	5524.86341	79.29210
73050.00000	79.32598	5521.21857	79.32598
73100.00000	79.55189	5513.24238	79.55189
73150.00000	79.25374	5505.11199	79.25374
73200.00000	79.36136	5498.69943	79.36136
73250.00000	79.53834	5493.67381	79.53834
73300.00000	79.89225	5487.10731	79.89225
73350.00000	80.29306	5478.49429	80.29306
73400.00000	80.11554	5472.35876	80.11554
73450.00000	80.75206	5469.66492	80.75206
73500.00000	81.22888	5460.91587	81.22888
73550.00000	81.58395	5458.07090	81.58395
73600.00000	82.19899	5450.23299	82.19899
73650.00000	82.10884	5442.51770	82.10884
73700.00000	82.55903	5439.79325	82.55903
73750.00000	82.81742	5433.47363	82.81742
73800.00000	82.95517	5426.50021	82.95517
73850.00000	83.97035	5419.58198	83.97035
73900.00000	83.57633	5413.91877	83.57633
73950.00000	83.97494	5408.09506	83.97494
74000.00000	84.01114	5401.24027	84.01114
74050.00000	84.21580	5392.54364	84.21580
74100.00000	84.56194	5389.51402	84.56194
74150.00000	84.67669	5379.53090	84.67669
74200.00000	84.77688	5374.92466	84.77688
74250.00000	84.67442	5365.18727	84.67442
74300.00000	85.16969	5347.54032	85.16969
74350.00000	85.23927	5337.59598	85.23927
74400.00000	83.44098	5284.41392	83.44098
74450.00000	79.52471	5116.86000	79.52471
74500.00000	84.40064	5049.98370	84.40064
74550.00000	84.00973	5027.20347	84.00973
74600.00000	83.27810	5008.12582	83.27810
74650.00000	84.68908	5001.75247	84.68908
74700.00000	82.95788	4996.96424	82.95788
74750.00000	84.25271	4986.75855	84.25271
74800.00000	84.11837	4989.29352	84.11837
74850.00000	83.16479	4975.26804	83.16479
74900.00000	84.84187	4971.31608	84.84187
74950.00000	83.80971	4970.83710	83.80971
75000.00000	84.03782	4962.32612	84.03782
75050.00000	84.33610	4963.32687	84.33610
75100.00000	83.21272	4958.11770	83.21272
75150.00000	83.71838	4950.09904	83.71838
75200.00000	83.55057	4947.65628	83.55057
75250.00000	82.85554	4938.72992	82.85554
75300.00000	82.82437	4937.34512	82.82437
75350.00000	82.52968	4936.58483	82.52968
75400.00000	82.52633	4929.87876	82.52633
75450.00000	82.19731	4931.61492	82.19731
75500.00000	81.21374	4925.74848	81.21374
75550.00000	80.90845	4920.38064	80.90845
75600.00000	81.04132	4927.73403	81.04132
75650.00000	80.07464	4919.42542	80.07464
75700.00000	80.99822	4920.28698	80.99822
75750.00000	80.42775	4923.13752	80.42775
75800.00000	78.98444	4912.84598	78.98444
75850.00000	80.82218	4919.30167	80.82218
75900.00000	78.57588	4922.01611	78.57588
75950.00000	79.98873	4914.95746	79.98873
76000.00000	80.48040	4916.66179	80.48040
76050.00000	78.71625	4915.11773	78.71625
76100.00000	80.26597	4910.92349	80.26597
76150.00000	80.12558	4914.51009	80.12558
76200.00000	79.21940	4904.86528	79.21940
76250.00000	81.13790	4903.24880	81.13790
76300.00000	79.20649	4909.38811	79.20649
76350.00000	80.38799	4897.53972	80.38799
76400.00000	81.01671	4904.47382	81.01671
76450.00000	79.71961	4898.37095	79.71961
76500.00000	81.17894	4891.02656	81.17894
76550.00000	80.55231	4897.80456	80.55231
76600.00000	79.79915	4881.76271	79.79915
76650.00000	80.68292	4887.16211	80.68292
76700.00000	78.63113	4888.32774	78.63113
76750.00000	80.25575	4877.03763	80.25575
76800.00000	80.46260	4880.88394	80.46260
76850.00000	77.84797	4885.41879	77.84797
76900.00000	80.71947	4866.19364	80.71947
76950.00000	78.46717	4883.18153	78.46717
77000.00000	77.18133	4866.63396	77.18133
77050.00000	79.12932	4867.32514	79.12932
77100.00000	77.26743	4884.39842	77.26743
77150.00000	77.15226	4858.40887	77.15226
77200.00000	79.44827	4876.69138	79.44827
77250.00000	75.47536	4881.22415	75.47536
77300.00000	78.84186	4863.13453	78.84186
77350.00000	78.68057	4876.20683	78.68057
77400.00000	75.19855	4859.73794	75.19855
77450.00000	79.35156	4865.44972	79.35156
77500.00000	78.51355	4883.14797	78.51355
77550.00000	77.94993	4862.58062	77.94993
77600.00000	79.34395	4876.79695	79.34395
77650.00000	77.29727	4882.65148	77.29727
77700.00000	78.78104	4865.17995	78.78104
77750.00000	79.93690	4882.33301	79.93690
77800.00000	77.77839	4872.05481	77.77839
77850.00000	81.08924	4869.59502	81.08924
77900.00000	79.43726	4876.21905	79.43726
77950.00000	79.85236	4862.70573	79.85236
78000.00000	81.25101	4869.05569	81.25101
78050.00000	80.43689	4867.12388	80.43689
78100.00000	81.69123	4861.14430	81.69123
78150.00000	82.23058	4864.57030	82.23058
78200.00000	82.02353	4857.42315	82.02353
78250.00000	83.40701	4852.95681	83.40701
78300.00000	83.17634	4858.52765	83.17634
78350.00000	83.09586	4847.73451	83.09586
78400.00000	84.11972	4847.42286	84.11972
78450.00000	83.44806	4845.85876	83.44806
78500.00000	84.49925	4840.43750	84.49925
78550.00000	84.71918	4842.49612	84.71918
78600.00000	84.54514	4833.19015	84.54514
78650.00000	85.36468	4830.70194	85.36468
78700.00000	85.16722	4830.10677	85.16722
78750.00000	85.70970	4823.10115	85.70970
78800.00000	86.02687	4822.16100	86.02687
78850.00000	85.82251	4816.74602	85.82251
78900.00000	86.58436	4812.87639	86.58436
78950.00000	86.47606	4811.10574	86.47606
79000.00000	86.68979	4804.56460	86.68979
79050.00000	87.04476	4801.83298	87.04476
79100.00000	86.91385	4796.59301	86.91385
79150.00000	87.13044	4793.17678	87.13044
79200.00000	87.42887	4789.19862	87.42887
79250.00000	87.19413	4784.13625	87.19413
79300.00000	87.26023	4780.97331	87.26023
79350.00000	87.12871	4775.94370	87.12871
79400.00000	87.22086	4772.64207	87.22086
79450.00000	87.24494	4768.14292	87.24494
79500.00000	87.28341	4764.52914	87.28341
79550.00000	87.24157	4761.76494	87.24157
79600.00000	87.30190	4756.22803	87.30190
79650.00000	87.31324	4753.85629	87.31324
79700.00000	87.02088	4749.45134	87.02088
79750.00000	87.07114	4746.42737	87.07114
79800.00000	87.16751	4742.08308	87.16751
79850.00000	87.01832	4738.95242	87.01832
79900.00000	86.83855	4735.18033	86.83855
79950.00000	86.85642	4730.81830	86.85642
80000.00000	86.81392	4728.38070	86.81392
80050.00000	86.67708	4724.84418	86.67708
80100.00000	86.44810	4719.46611	86.44810
80150.00000	85.98667	4716.63569	85.98667
80200.00000	86.05603	4713.84210	86.05603
80250.00000	85.91095	4710.23294	85.91095
80300.00000	85.50585	4709.98076	85.50585
80350.00000	85.42147	4705.03062	85.42147
80400.00000	85.20108	4703.13479	85.20108
80450.00000	85.30630	4701.94755	85.30630
80500.00000	85.10235	4697.90163	85.10235
80550.00000	84.79497	4695.09989	84.79497
80600.00000	84.83733	4691.74425	84.83733
80650.00000	84.57052	4691.65620	84.57052
80700.00000	84.55576	4688.20012	84.55576
80750.00000	84.78218	4686.16461	84.78218
80800.00000	84.32258	4683.96650	84.32258
80850.00000	84.60099	4681.59853	84.60099
80900.00000	84.32647	4680.15978	84.32647
80950.00000	84.15483	4677.71759	84.15483
81000.00000	83.95225	4675.80015	83.95225
81050.00000	84.11733	4672.14237	84.11733
81100.00000	84.06499	4669.81425	84.06499
81150.00000	84.02140	4668.72894	84.02140
81200.00000	83.99215	4664.61109	83.99215
81250.00000	83.89702	4662.28897	83.89702
81300.00000	83.69804	4659.61232	83.69804
81350.00000	83.94005	4657.17938	83.94005
81400.00000	83.55124	4654.35336	83.55124
81450.00000	83.59004	4650.67200	83.59004
81500.00000	83.49231	4648.44484	83.49231
81550.00000	83.30283	4645.33136	83.30283
81600.00000	83.10480	4642.24599	83.10480
81650.00000	82.91718	4639.65549	82.91718
81700.00000	82.69430	4637.32273	82.69430
81750.00000	82.36675	4636.12415	82.36675
81800.00000	82.28456	4632.24584	82.28456
81850.00000	81.84192	4632.05773	81.84192
81900.00000	81.69932	4628.67508	81.69932
81950.00000	81.54304	4626.08588	81.54304
82000.00000	81.16355	4625.59061	81.16355
82050.00000	80.69806	4621.29038	80.69806
82100.00000	80.44722	4620.77726	80.44722
82150.00000	79.67958	4619.26232	79.67958
82200.00000	78.83126	4620.63471	78.83126
82250.00000	78.20092	4624.42571	78.20092
82300.00000	77.56836	4631.07615	77.56836
82350.00000	78.04560	4637.58367	78.04560
82400.00000	78.69792	4644.57877	78.69792
82450.00000	79.96224	4645.01581	79.96224
82500.00000	80.68192	4643.37558	80.68192
82550.00000	81.56107	4640.80399	81.56107
82600.00000	82.26980	4638.11442	82.26980
82650.00000	82.90632	4634.32715	82.90632
82700.00000	83.22417	4631.98210	83.22417
82750.00000	83.79803	4626.30801	83.79803
82800.00000	84.09515	4624.39010	84.09515
82850.00000	84.50001	4619.79226	84.50001
82900.00000	84.68853	4615.40551	84.68853
82950.00000	84.84198	4610.52939	84.84198
83000.00000	85.31500	4607.62575	85.31500
83050.00000	85.59564	4603.73611	85.59564
83100.00000	86.06193	4600.97910	86.06193
83150.00000	86.37167	4597.77069	86.37167
83200.00000	86.67568	4594.15904	86.67568
83250.00000	87.11592	4591.05238	87.11592
83300.00000	87.20532	4587.74066	87.20532
83350.00000	87.29567	4584.82221	87.29567
83400.00000	87.68629	4581.69352	87.68629
83450.00000	88.07347	4578.30627	88.07347
83500.00000	88.14085	4574.20191	88.14085
83550.00000	88.35190	4570.40629	88.35190
83600.00000	88.62537	4567.79567	88.62537
83650.00000	88.73464	4564.14604	88.73464
83700.00000	88.95560	4559.95375	88.95560
83750.00000	89.06623	4556.18689	89.06623
83800.00000	89.28869	4551.33531	89.28869
83850.00000	89.31004	4547.90670	89.31004
83900.00000	89.43513	4543.78833	89.43513
83950.00000	89.63125	4539.18622	89.63125
84000.00000	89.77062	4534.03027	89.77062
84050.00000	89.82530	4530.74678	89.82530
84100.00000	89.93699	4526.30672	89.93699
84150.00000	90.01397	4521.74832	90.01397
84200.00000	90.16990	4517.93855	90.16990
84250.00000	90.19782	4513.11673	90.19782
84300.00000	90.15053	4508.69863	90.15053
84350.00000	90.30521	4503.15180	90.30521
84400.00000	90.35154	4499.01668	90.35154
84450.00000	90.46307	4494.13250	90.46307
84500.00000	90.50118	4489.15093	90.50118
84550.00000	90.50795	4485.23639	90.50795
84600.00000	90.57108	4479.50420	90.57108
84650.00000	90.67073	4474.61429	90.67073
84700.00000	90.58136	4469.57019	90.58136
84750.00000	90.55969	4464.21167	90.55969
84800.00000	90.57550	4458.22071	90.57550
84850.00000	90.46321	4453.16951	90.46321
84900.00000	90.40134	4447.90408	90.40134
84950.00000	90.31967	4442.12665	90.31967
85000.00000	90.27840	4436.00641	90.27840
85050.00000	90.06152	4430.35013	90.06152
85100.00000	89.93463	4424.99411	89.93463
85150.00000	89.77499	4419.00462	89.77499
85200.00000	89.53670	4413.71887	89.53670
85250.00000	89.73932	4407.88512	89.73932
85300.00000	89.15933	4403.18920	89.15933
85350.00000	88.74478	4397.56416	88.74478
85400.00000	88.43688	4391.68934	88.43688
85450.00000	88.13709	4386.31710	88.13709
85500.00000	87.74286	4381.34460	87.74286
85550.00000	87.57357	4376.37961	87.57357
85600.00000	87.05316	4371.45532	87.05316
85650.00000	86.84203	4366.42886	86.84203
85700.00000	86.41875	4360.83852	86.41875
85750.00000	86.08640	4357.14544	86.08640
85800.00000	85.78731	4353.58681	85.78731
85850.00000	85.39599	4347.14549	85.39599
85900.00000	85.06160	4341.66138	85.06160
85950.00000	84.73975	4338.28720	84.73975
86000.00000	84.45160	4335.00994	84.45160
86050.00000	84.33625	4329.06083	84.33625
86100.00000	84.18362	4325.86616	84.18362
86150.00000	83.59695	4318.48182	83.59695
86200.00000	83.76796	4314.95235	83.76796
86250.00000	83.13879	4309.86471	83.13879
86300.00000	82.67393	4303.40662	82.67393
86350.00000	82.46784	4298.84988	82.46784
86400.00000	81.54251	4289.02590	81.54251
86450.00000	81.08833	4283.94918	81.08833
86500.00000	80.71737	4282.36374	80.71737
86550.00000	80.56215	4275.03431	80.56215
86600.00000	79.56230	4267.41435	79.56230
86650.00000	79.80166	4263.82330	79.80166
86700.00000	78.94699	4259.77942	78.94699
86750.00000	79.02891	4253.58575	79.02891
86800.00000	78.49381	4248.82130	78.49381
86850.00000	78.02643	4243.09776	78.02643
86900.00000	77.79345	4237.72850	77.79345
86950.00000	77.62529	4230.23155	77.62529
87000.00000	76.75153	4223.98748	76.75153
87050.00000	76.68157	4214.45609	76.68157
87100.00000	76.22795	4209.14231	76.22795
87150.00000	75.71719	4199.95161	75.71719
87200.00000	75.43823	4195.21210	75.43823
87250.00000	75.16148	4186.61668	75.16148
87300.00000	73.96972	4178.85151	73.96972
87350.00000	73.55335	4172.41765	73.55335
87400.00000	73.13764	4160.79556	73.13764
87450.00000	72.60109	4152.27217	72.60109
87500.00000	71.83383	4146.91093	71.83383
87550.00000	71.79750	4137.22604	71.79750
87600.00000	70.82499	4125.06592	70.82499
87650.00000	71.33284	4115.51863	71.33284
87700.00000	70.06853	4111.47494	70.06853
87750.00000	69.76075	4104.18140	69.76075
87800.00000	69.00209	4092.12901	69.00209
87850.00000	69.40669	4073.87128	69.40669
87900.00000	69.20423	4069.40608	69.20423
87950.00000	68.00981	4055.44769	68.00981
88000.00000	67.61451	4046.51902	67.61451
88050.00000	67.91972	4033.37102	67.91972
88100.00000	68.66223	4019.70018	68.66223
88150.00000	68.22224	4003.99289	68.22224
88200.00000	68.00407	3989.16156	68.00407
88250.00000	67.29006	3991.78124	67.29006
88300.00000	67.42983	3970.66073	67.42983
88350.00000	68.31744	3965.13091	68.31744
88400.00000	68.26580	3951.91807	68.26580
88450.00000	68.67030	3946.23795	68.67030
88500.00000	68.84401	3931.77477	68.84401
88550.00000	68.98683	3921.24708	68.98683
88600.00000	69.57167	3910.32923	69.57167
88650.00000	69.46679	3905.44172	69.46679
88700.00000	69.48833	3891.69715	69.48833
88750.00000	70.18253	3882.20927	70.18253
88800.00000	69.81494	3874.55364	69.81494
88850.00000	69.90486	3869.29449	69.90486
88900.00000	70.68690	3862.40017	70.68690
88950.00000	70.06652	3848.76167	70.06652
89000.00000	70.65101	3841.39816	70.65101
89050.00000	70.44837	3839.06878	70.44837
89100.00000	70.77216	3833.35385	70.77216
89150.00000	70.23132	3825.93649	70.23132
89200.00000	70.57172	3823.78812	70.57172
89250.00000	70.41449	3815.29324	70.41449
89300.00000	70.58519	3803.80356	70.58519
89350.00000	70.99127	3801.41491	70.99127
89400.00000	70.55272	3798.63450	70.55272
89450.00000	70.82196	3794.76981	70.82196
89500.00000	71.04040	3787.72050	71.04040
89550.00000	70.03875	3783.93132	70.03875
89600.00000	70.22077	3779.30009	70.22077
89650.00000	70.73663	3775.30377	70.73663
89700.00000	70.62332	3776.28488	70.62332
89750.00000	70.62453	3770.18280	70.62453
89800.00000	70.28409	3771.53844	70.28409
89850.00000	70.16151	3769.10684	70.16151
89900.00000	70.50396	3763.48350	70.50396
89950.00000	71.16838	3765.93405	71.16838
90000.00000	71.30483	3768.09907	71.30483
90050.00000	71.71056	3769.14810	71.71056
90100.00000	73.71805	3766.78949	73.71805
90150.00000	75.51078	3769.28474	75.51078
90200.00000	78.66670	3757.24429	78.66670
90250.00000	79.89858	3730.85012	79.89858
90300.00000	80.15827	3704.91271	80.15827
90350.00000	77.85679	3691.83204	77.85679
90400.00000	77.13331	3688.59792	77.13331
90450.00000	76.17373	3678.48804	76.17373
90500.00000	75.61249	3670.40618	75.61249
90550.00000	75.06220	3664.85558	75.06220
90600.00000	74.29288	3659.55683	74.29288
90650.00000	74.17836	3655.52658	74.17836
90700.00000	73.97402	3656.48395	73.97402
90750.00000	72.85691	3653.33182	72.85691
90800.00000	73.00160	3647.46195	73.00160
90850.00000	73.09614	3645.24244	73.09614
90900.00000	72.81008	3643.14228	72.81008
90950.00000	72.22177	3643.92930	72.22177
91000.00000	72.32774	3631.98759	72.32774
91050.00000	71.45140	3626.65677	71.45140
91100.00000	71.92344	3627.01834	71.92344
91150.00000	70.29461	3624.29104	70.29461
91200.00000	69.85277	3621.12814	69.85277
91250.00000	68.82438	3622.69854	68.82438
91300.00000	68.48505	3627.85377	68.48505
91350.00000	68.24608	3634.17794	68.24608
91400.00000	67.36545	3629.97104	67.36545
91450.00000	67.47079	3636.06799	67.47079
91500.00000	67.46919	3645.88809	67.46919
91550.00000	69.05974	3641.13953	69.05974
91600.00000	69.04993	3648.20378	69.04993
91650.00000	70.81196	3647.89357	70.81196
91700.00000	70.82189	3644.70685	70.82189
91750.00000	72.14491	3643.91585	72.14491
91800.00000	72.84115	3646.84328	72.84115
91850.00000	73.47361	3642.59747	73.47361
91900.00000	74.45375	3641.13270	74.45375
91950.00000	74.45258	3635.93780	74.45258
92000.00000	75.37868	3631.88985	75.37868
92050.00000	76.20564	3629.07582	76.20564
92100.00000	76.44606	3626.78304	76.44606
92150.00000	76.89180	3623.86472	76.89180
92200.00000	78.00886	3619.34869	78.00886
92250.00000	78.44694	3612.78211	78.44694
92300.00000	78.77255	3609.15925	78.77255
92350.00000	79.15711	3604.26339	79.15711
92400.00000	79.68942	3600.39457	79.68942
92450.00000	79.76728	3594.95494	79.76728
92500.00000	80.02748	3591.21999	80.02748
92550.00000	80.37982	3585.65194	80.37982
92600.00000	80.67029	3580.72054	80.67029
92650.00000	80.98639	3574.42223	80.98639
92700.00000	80.87112	3572.35693	80.87112
92750.00000	81.18338	3567.73352	81.18338
92800.00000	81.37280	3563.44465	81.37280
92850.00000	81.43357	3559.35102	81.43357
92900.00000	81.47574	3554.39616	81.47574
92950.00000	81.52886	3550.79478	81.52886
93000.00000	81.49769	3544.61763	81.49769
93050.00000	81.51690	3538.63874	81.51690
93100.00000	81.63734	3537.86602	81.63734
93150.00000	81.31551	3532.34874	81.31551
93200.00000	81.13082	3529.22208	81.13082
93250.00000	81.32597	3527.78609	81.32597
93300.00000	81.09863	3521.35391	81.09863
93350.00000	80.97450	3516.67204	80.97450
93400.00000	81.23189	3514.12620	81.23189
93450.00000	81.07296	3512.18257	81.07296
93500.00000	80.65943	3508.79906	80.65943
93550.00000	80.16636	3507.09693	80.16636
93600.00000	80.09016	3501.91759	80.09016
93650.00000	80.64954	3500.03329	80.64954
93700.00000	80.10523	3498.81961	80.10523
93750.00000	79.91293	3493.48623	79.91293
93800.00000	80.14852	3490.99940	80.14852
93850.00000	79.78117	3488.83922	79.78117
93900.00000	79.77559	3486.05092	79.77559
93950.00000	79.73239	3485.10180	79.73239
94000.00000	79.75413	3481.11562	79.75413
94050.00000	79.59950	3480.32642	79.59950
94100.00000	79.43945	3477.55345	79.43945
94150.00000	79.56836	3475.62616	79.56836
94200.00000	79.46796	3472.06634	79.46796
94250.00000	80.12354	3470.17750	80.12354
94300.00000	79.83241	3466.66159	79.83241
94350.00000	79.62642	3464.07164	79.62642
94400.00000	79.38747	3462.67834	79.38747
94450.00000	79.70597	3456.89870	79.70597
94500.00000	79.55656	3452.70907	79.55656
94550.00000	79.94820	3448.73366	79.94820
94600.00000	79.70626	3445.42702	79.70626
94650.00000	79.86229	3439.95680	79.86229
94700.00000	79.74193	3436.68636	79.74193
94750.00000	79.68456	3431.82141	79.68456
94800.00000	79.46818	3428.64097	79.46818
94850.00000	79.23145	3423.41164	79.23145
94900.00000	79.28046	3420.22488	79.28046
94950.00000	78.59300	3415.46738	78.59300
95000.00000	79.00754	3411.85364	79.00754
95050.00000	78.24085	3410.28244	78.24085
95100.00000	78.82816	3406.91274	78.82816
95150.00000	78.12802	3398.64738	78.12802
95200.00000	77.43658	3397.25858	77.43658
95250.00000	77.13175	3394.11990	77.13175
95300.00000	76.93424	3390.98746	76.93424
95350.00000	76.80328	3389.05484	76.80328
95400.00000	76.42383	3382.99572	76.42383
95450.00000	76.68765	3385.63627	76.68765
95500.00000	76.39763	3382.68467	76.39763
95550.00000	75.90769	3386.69331	75.90769
95600.00000	76.94686	3381.64747	76.94686
95650.00000	75.53447	3377.05606	75.53447
95700.00000	76.40232	3379.53134	76.40232
95750.00000	76.24866	3377.66311	76.24866
95800.00000	75.86592	3375.14931	75.86592
95850.00000	76.48861	3379.68020	76.48861
95900.00000	77.29438	3372.31931	77.29438
95950.00000	78.06984	3369.97041	78.06984
96000.00000	77.21280	3372.13539	77.21280
96050.00000	78.06476	3363.26199	78.06476
96100.00000	79.75099	3359.43164	79.75099
96150.00000	78.66000	3352.16225	78.66000
96200.00000	80.10949	3349.48341	80.10949
96250.00000	79.99164	3341.25972	79.99164
96300.00000	80.32034	3335.26510	80.32034
96350.00000	80.76263	3327.48726	80.76263
96400.00000	80.22660	3326.83665	80.22660
96450.00000	80.40831	3320.44358	80.40831
96500.00000	80.75829	3320.00352	80.75829
96550.00000	79.75184	3319.29191	79.75184
96600.00000	80.28133	3308.27417	80.28133
96650.00000	80.84404	3299.16811	80.84404
96700.00000	79.24122	3295.72592	79.24122
96750.00000	81.69731	3293.80681	81.69731
96800.00000	80.86781	3294.17101	80.86781
96850.00000	80.51412	3283.30627	80.51412
96900.00000	81.91404	3274.03298	81.91404
96950.00000	82.73134	3277.47502	82.73134
97000.00000	82.21547	3274.62147	82.21547
97050.00000	81.72378	3274.40896	81.72378
97100.00000	83.37563	3269.37986	83.37563
97150.00000	84.41820	3257.24940	84.41820
97200.00000	84.41277	3256.59774	84.41277
97250.00000	82.55860	3229.36961	82.55860
97300.00000	82.36784	3214.29581	82.36784
97350.00000	80.08451	3198.30418	80.08451
97400.00000	79.73217	3193.82042	79.73217
97450.00000	75.17608	3189.41325	75.17608
97500.00000	73.79870	3207.39205	73.79870
97550.00000	72.40851	3215.98357	72.40851
97600.00000	73.39497	3200.71349	73.39497
97650.00000	71.34366	3205.13324	71.34366
97700.00000	73.39918	3209.10609	73.39918
97750.00000	71.58848	3216.75258	71.58848
97800.00000	71.95340	3216.10134	71.95340
97850.00000	69.63431	3197.85057	69.63431
97900.00000	70.68583	3200.56457	70.68583
97950.00000	69.87956	3219.12499	69.87956
98000.00000	71.05029	3200.03658	71.05029
98050.00000	70.04726	3204.90493	70.04726
98100.00000	70.62078	3226.29441	70.62078
98150.00000	70.39593	3206.53024	70.39593
98200.00000	68.98189	3199.62052	68.98189
98250.00000	69.32415	3208.38591	69.32415
98300.00000	68.93546	3209.27150	68.93546
98350.00000	68.79981	3206.82084	68.79981
98400.00000	69.52901	3208.48474	69.52901
98450.00000	68.03796	3195.30520	68.03796
98500.00000	66.43403	3196.69538	66.43403
98550.00000	65.86620	3199.60770	65.86620
98600.00000	66.30990	3187.68789	66.30990
98650.00000	67.34729	3186.98517	67.34729
98700.00000	64.22937	3179.13068	64.22937
98750.00000	64.21465	3181.79439	64.21465
98800.00000	65.85920	3171.16563	65.85920
98850.00000	61.42494	3182.54574	61.42494
98900.00000	63.02521	3180.77424	63.02521
98950.00000	62.83853	3172.56660	62.83853
99000.00000	64.14707	3163.43139	64.14707
99050.00000	57.68234	3175.14782	57.68234
99100.00000	58.46031	3148.95147	58.46031
99150.00000	58.60751	3163.10581	58.60751
99200.00000	59.53174	3159.97639	59.53174
99250.00000	55.92805	3130.60274	55.92805
99300.00000	58.12295	3139.11578	58.12295
99350.00000	57.13807	3156.53336	57.13807
99400.00000	59.41941	3148.66712	59.41941
99450.00000	56.21575	3156.01890	56.21575
99500.00000	56.42032	3082.07029	56.42032
99550.00000	55.95668	3151.52919	55.95668
99600.00000	54.57798	3116.22834	54.57798
99650.00000	56.80135	3097.34612	56.80135
99700.00000	52.61837	3094.42506	52.61837
99750.00000	53.36222	3125.62739	53.36222
99800.00000	51.23473	3077.31982	51.23473
99850.00000	48.09202	3153.76580	48.09202
99900.00000	52.98330	3046.83418	52.98330
99950.00000	50.46916	3027.35646	50.46916
