---ACOUSTIC CALIBRATION---
Filename: C:\Data\AZH DATA\AZH82\RightSecondary.calib
Date: 8/27/2019 4:51:01 PM
Format: 4
Probe Tube Correction File: C:\Data\Probe Tube Calibrations\50_ProbeTube.calib
Experiment VIs: 850
EPL_CFTS.exe V12.0.1 (2012)
DAQmx V9.6

Attenuation (dB): 40.000000
Min Freq (Hz): 50.000000
Max Freq (Hz): 49950.000000
Freq Step (Hz): 50.000000
Sample Rate (Hz): 100000.000000
[Smoothing]
Method=None
MA.Iterations=0
MA.Length=0
Loess.Length=0
Loess.Type=Linear
Loess.Robust=FALSE


Freq(Hz)	Mag(dB)	Phase(deg)	Unsmoothed(dB)

50.00000	108.36034	416.26114	108.36034
100.00000	84.04444	567.28806	84.04444
150.00000	81.65080	473.06410	81.65080
200.00000	84.82802	436.01610	84.82802
250.00000	92.12926	418.70673	92.12926
300.00000	87.12771	365.61502	87.12771
350.00000	86.75992	318.87364	86.75992
400.00000	89.40114	312.88885	89.40114
450.00000	85.67083	301.38754	85.67083
500.00000	89.81533	315.97591	89.81533
550.00000	89.51303	316.78815	89.51303
600.00000	91.32417	325.55844	91.32417
650.00000	94.13800	327.76478	94.13800
700.00000	97.10352	314.75534	97.10352
750.00000	98.93938	315.55757	98.93938
800.00000	101.64793	304.92473	101.64793
850.00000	103.92659	293.64799	103.92659
900.00000	105.44054	276.28574	105.44054
950.00000	106.79210	260.13050	106.79210
1000.00000	106.85333	242.49186	106.85333
1050.00000	106.38141	232.84219	106.38141
1100.00000	106.40106	221.41047	106.40106
1150.00000	105.52450	211.49753	105.52450
1200.00000	105.42084	209.38550	105.42084
1250.00000	105.40955	198.73300	105.40955
1300.00000	104.50977	193.43610	104.50977
1350.00000	103.87294	188.69942	103.87294
1400.00000	103.08762	189.35980	103.08762
1450.00000	103.39788	190.02801	103.39788
1500.00000	103.57883	187.60856	103.57883
1550.00000	103.68858	185.26350	103.68858
1600.00000	104.35676	182.47674	104.35676
1650.00000	105.12377	173.99422	105.12377
1700.00000	103.97888	169.71353	103.97888
1750.00000	103.86246	168.29282	103.86246
1800.00000	103.52303	166.94308	103.52303
1850.00000	103.45599	168.83747	103.45599
1900.00000	104.53168	168.48023	104.53168
1950.00000	105.29920	160.08540	105.29920
2000.00000	105.18848	151.30061	105.18848
2050.00000	104.28069	147.54657	104.28069
2100.00000	104.31313	145.72029	104.31313
2150.00000	103.85326	141.77200	103.85326
2200.00000	103.44014	137.96188	103.44014
2250.00000	102.45058	137.05310	102.45058
2300.00000	102.43595	139.23743	102.43595
2350.00000	102.20559	139.42975	102.20559
2400.00000	102.27112	140.26985	102.27112
2450.00000	102.25117	137.31972	102.25117
2500.00000	101.95643	138.53792	101.95643
2550.00000	101.66559	139.86436	101.66559
2600.00000	101.62544	146.43577	101.62544
2650.00000	102.57866	153.28232	102.57866
2700.00000	104.36713	153.73575	104.36713
2750.00000	105.86791	146.14788	105.86791
2800.00000	106.42118	136.72477	106.42118
2850.00000	106.35463	128.12452	106.35463
2900.00000	106.05020	121.64094	106.05020
2950.00000	105.73828	118.02455	105.73828
3000.00000	105.44157	114.08772	105.44157
3050.00000	105.03176	110.86585	105.03176
3100.00000	104.76281	108.39086	104.76281
3150.00000	104.44000	104.06227	104.44000
3200.00000	103.93568	101.04243	103.93568
3250.00000	103.07851	99.04623	103.07851
3300.00000	102.26587	97.50324	102.26587
3350.00000	101.00967	97.97495	101.00967
3400.00000	99.84938	105.78791	99.84938
3450.00000	99.58179	116.00152	99.58179
3500.00000	100.04730	124.01760	100.04730
3550.00000	100.63277	128.24148	100.63277
3600.00000	101.14921	131.10931	101.14921
3650.00000	101.14784	132.76645	101.14784
3700.00000	100.93530	140.49350	100.93530
3750.00000	101.59736	151.97831	101.59736
3800.00000	103.30066	161.35181	103.30066
3850.00000	105.32755	165.19273	105.32755
3900.00000	107.28387	165.88068	107.28387
3950.00000	109.06848	163.04485	109.06848
4000.00000	110.45909	158.51517	110.45909
4050.00000	111.60228	153.80782	111.60228
4100.00000	112.59600	149.55502	112.59600
4150.00000	113.65039	145.80119	113.65039
4200.00000	114.41316	141.73607	114.41316
4250.00000	115.29111	138.25181	115.29111
4300.00000	116.15468	134.93463	116.15468
4350.00000	117.03092	131.71312	117.03092
4400.00000	118.03094	128.94992	118.03094
4450.00000	119.18662	125.83295	119.18662
4500.00000	120.48539	121.58278	120.48539
4550.00000	121.84584	115.96415	121.84584
4600.00000	123.21614	108.97041	123.21614
4650.00000	124.61433	100.45917	124.61433
4700.00000	125.92248	89.91897	125.92248
4750.00000	127.05591	77.36721	127.05591
4800.00000	127.90133	62.94205	127.90133
4850.00000	128.29721	47.41093	128.29721
4900.00000	128.20902	31.78977	128.20902
4950.00000	127.64230	17.24408	127.64230
5000.00000	126.59811	 5.14255	126.59811
5050.00000	125.53612	-3.29224	125.53612
5100.00000	124.28944	-12.87362	124.28944
5150.00000	121.78220	-15.15603	121.78220
5200.00000	120.67717	 3.24824	120.67717
5250.00000	123.77157	 8.89933	123.77157
5300.00000	125.47033	-4.38858	125.47033
5350.00000	125.78711	-17.56988	125.78711
5400.00000	125.57310	-28.49540	125.57310
5450.00000	125.16907	-37.32261	125.16907
5500.00000	124.70952	-44.94860	124.70952
5550.00000	124.25023	-51.53622	124.25023
5600.00000	123.79336	-57.51076	123.79336
5650.00000	123.35505	-62.96629	123.35505
5700.00000	122.91384	-68.26567	122.91384
5750.00000	122.49876	-72.97768	122.49876
5800.00000	122.08725	-77.57012	122.08725
5850.00000	121.71116	-81.96874	121.71116
5900.00000	121.34345	-86.13468	121.34345
5950.00000	120.98155	-90.17321	120.98155
6000.00000	120.63536	-94.03952	120.63536
6050.00000	120.26434	-97.82868	120.26434
6100.00000	119.92411	-101.50181	119.92411
6150.00000	119.59227	-105.20094	119.59227
6200.00000	119.23478	-108.76047	119.23478
6250.00000	118.92215	-112.29660	118.92215
6300.00000	118.61330	-115.63615	118.61330
6350.00000	118.28238	-119.00640	118.28238
6400.00000	117.96747	-122.17956	117.96747
6450.00000	117.66422	-125.32421	117.66422
6500.00000	117.34726	-128.38853	117.34726
6550.00000	117.02035	-131.34323	117.02035
6600.00000	116.69403	-134.09398	116.69403
6650.00000	116.38217	-136.79069	116.38217
6700.00000	116.06948	-139.66199	116.06948
6750.00000	115.77461	-142.04535	115.77461
6800.00000	115.46514	-144.34515	115.46514
6850.00000	115.18300	-146.53167	115.18300
6900.00000	114.93185	-148.83139	114.93185
6950.00000	114.65012	-150.86629	114.65012
7000.00000	114.43279	-152.93068	114.43279
7050.00000	114.19909	-155.19315	114.19909
7100.00000	114.00278	-157.37184	114.00278
7150.00000	113.81025	-159.24614	113.81025
7200.00000	113.59371	-161.08934	113.59371
7250.00000	113.38943	-162.96550	113.38943
7300.00000	113.25963	-164.64759	113.25963
7350.00000	113.08610	-166.13923	113.08610
7400.00000	112.98930	-167.74070	112.98930
7450.00000	112.94042	-169.44556	112.94042
7500.00000	112.88783	-171.21587	112.88783
7550.00000	112.89779	-173.13880	112.89779
7600.00000	112.87340	-175.20264	112.87340
7650.00000	112.89179	-177.36327	112.89179
7700.00000	112.98937	-179.91060	112.98937
7750.00000	112.99274	-182.81045	112.99274
7800.00000	112.99493	-186.00584	112.99493
7850.00000	112.97271	-189.22644	112.97271
7900.00000	112.95535	-192.41661	112.95535
7950.00000	112.91339	-196.01820	112.91339
8000.00000	112.83278	-199.87994	112.83278
8050.00000	112.73486	-203.79736	112.73486
8100.00000	112.59167	-207.11865	112.59167
8150.00000	112.37814	-210.73693	112.37814
8200.00000	112.11989	-214.24222	112.11989
8250.00000	111.81171	-217.72864	111.81171
8300.00000	111.56075	-220.82536	111.56075
8350.00000	111.28346	-223.77845	111.28346
8400.00000	110.97869	-227.22978	110.97869
8450.00000	110.63058	-230.02620	110.63058
8500.00000	110.30135	-233.08337	110.30135
8550.00000	110.01709	-235.45256	110.01709
8600.00000	109.70323	-238.23394	109.70323
8650.00000	109.37121	-240.39318	109.37121
8700.00000	109.07753	-242.94919	109.07753
8750.00000	108.73907	-244.30101	108.73907
8800.00000	108.43730	-246.61428	108.43730
8850.00000	108.09259	-248.50735	108.09259
8900.00000	107.84007	-249.82822	107.84007
8950.00000	107.55037	-251.65776	107.55037
9000.00000	107.23322	-253.26272	107.23322
9050.00000	107.03710	-255.29748	107.03710
9100.00000	106.81795	-257.18505	106.81795
9150.00000	106.65011	-258.98020	106.65011
9200.00000	106.55827	-260.77136	106.55827
9250.00000	106.38187	-262.42159	106.38187
9300.00000	106.26068	-263.49269	106.26068
9350.00000	106.14179	-264.64996	106.14179
9400.00000	105.91195	-265.41280	105.91195
9450.00000	105.75137	-266.55658	105.75137
9500.00000	105.58611	-267.78872	105.58611
9550.00000	105.42783	-269.60965	105.42783
9600.00000	105.38159	-272.17076	105.38159
9650.00000	105.35016	-274.79084	105.35016
9700.00000	105.36284	-276.55339	105.36284
9750.00000	105.47971	-279.00209	105.47971
9800.00000	105.43340	-280.11092	105.43340
9850.00000	105.38073	-280.94912	105.38073
9900.00000	105.14179	-282.54097	105.14179
9950.00000	104.99042	-283.67826	104.99042
10000.00000	104.82426	-285.73052	104.82426
10050.00000	104.56556	-287.66574	104.56556
10100.00000	104.29710	-290.03160	104.29710
10150.00000	103.94110	-293.37469	103.94110
10200.00000	103.74553	-296.59455	103.74553
10250.00000	103.59656	-300.23588	103.59656
10300.00000	103.67854	-303.14045	103.67854
10350.00000	103.69888	-305.28484	103.69888
10400.00000	103.64910	-307.40705	103.64910
10450.00000	103.63894	-309.14940	103.63894
10500.00000	103.48048	-310.68143	103.48048
10550.00000	103.20392	-312.71980	103.20392
10600.00000	102.87749	-315.12095	102.87749
10650.00000	102.62430	-317.36025	102.62430
10700.00000	102.46124	-320.95680	102.46124
10750.00000	102.33684	-323.71261	102.33684
10800.00000	102.09162	-326.15072	102.09162
10850.00000	101.84817	-329.70807	101.84817
10900.00000	101.66454	-332.32275	101.66454
10950.00000	101.50034	-334.44487	101.50034
11000.00000	101.31619	-336.31852	101.31619
11050.00000	100.91830	-337.75282	100.91830
11100.00000	100.50625	-339.62928	100.50625
11150.00000	99.88902	-341.50221	99.88902
11200.00000	99.39958	-344.15357	99.39958
11250.00000	98.82440	-347.28926	98.82440
11300.00000	98.41251	-350.26731	98.41251
11350.00000	98.10639	-351.75181	98.10639
11400.00000	97.70210	-352.68691	97.70210
11450.00000	97.27347	-353.15902	97.27347
11500.00000	96.92673	-352.23495	96.92673
11550.00000	96.31682	-352.13725	96.31682
11600.00000	95.91943	-353.51632	95.91943
11650.00000	95.40015	-353.18888	95.40015
11700.00000	95.07378	-353.72277	95.07378
11750.00000	94.81555	-354.57749	94.81555
11800.00000	94.66184	-355.75758	94.66184
11850.00000	94.69667	-354.83047	94.69667
11900.00000	94.51118	-353.80565	94.51118
11950.00000	94.35628	-351.92203	94.35628
12000.00000	93.95647	-350.23629	93.95647
12050.00000	93.52147	-349.68409	93.52147
12100.00000	93.15718	-351.13670	93.15718
12150.00000	92.83444	-352.25795	92.83444
12200.00000	92.82734	-353.49312	92.82734
12250.00000	92.79772	-354.06662	92.79772
12300.00000	93.93320	-354.08103	93.93320
12350.00000	92.78797	-352.85704	92.78797
12400.00000	92.58103	-351.11229	92.58103
12450.00000	92.33740	-349.86247	92.33740
12500.00000	92.02595	-349.52886	92.02595
12550.00000	91.75620	-349.58837	91.75620
12600.00000	91.48787	-349.98699	91.48787
12650.00000	91.60562	-349.68562	91.60562
12700.00000	91.48529	-349.77959	91.48529
12750.00000	91.44225	-349.14989	91.44225
12800.00000	91.42957	-346.98972	91.42957
12850.00000	91.05052	-345.94033	91.05052
12900.00000	91.10914	-345.11557	91.10914
12950.00000	91.17578	-344.12092	91.17578
13000.00000	90.99484	-344.63653	90.99484
13050.00000	90.93930	-344.92255	90.93930
13100.00000	91.00297	-346.50523	91.00297
13150.00000	91.27811	-346.43512	91.27811
13200.00000	91.55172	-342.86917	91.55172
13250.00000	91.55744	-340.78804	91.55744
13300.00000	91.23263	-337.75380	91.23263
13350.00000	91.06952	-339.29798	91.06952
13400.00000	91.27022	-341.04951	91.27022
13450.00000	91.32125	-341.18765	91.32125
13500.00000	91.62561	-340.12372	91.62561
13550.00000	91.67843	-339.52145	91.67843
13600.00000	91.87646	-337.47091	91.87646
13650.00000	92.05232	-336.55860	92.05232
13700.00000	91.94041	-335.61489	91.94041
13750.00000	91.94748	-334.07394	91.94748
13800.00000	91.92655	-335.05337	91.92655
13850.00000	91.94907	-335.34449	91.94907
13900.00000	92.09509	-335.48631	92.09509
13950.00000	92.44440	-335.23655	92.44440
14000.00000	92.89805	-333.17649	92.89805
14050.00000	93.13594	-333.00942	93.13594
14100.00000	93.13795	-332.20543	93.13795
14150.00000	93.46599	-332.57524	93.46599
14200.00000	93.83097	-331.61871	93.83097
14250.00000	94.51141	-329.98035	94.51141
14300.00000	94.81431	-329.45018	94.81431
14350.00000	95.10626	-326.54814	95.10626
14400.00000	94.95925	-327.03729	94.95925
14450.00000	95.24698	-326.20676	95.24698
14500.00000	95.64424	-327.40561	95.64424
14550.00000	96.17505	-326.91493	96.17505
14600.00000	96.46214	-328.11205	96.46214
14650.00000	97.22196	-327.03353	97.22196
14700.00000	97.77553	-331.30826	97.77553
14750.00000	98.31253	-331.05256	98.31253
14800.00000	98.70492	-330.57704	98.70492
14850.00000	99.22747	-331.43068	99.22747
14900.00000	99.77546	-333.05676	99.77546
14950.00000	100.30614	-334.68767	100.30614
15000.00000	100.81568	-336.31922	100.81568
15050.00000	101.11822	-337.40546	101.11822
15100.00000	101.65732	-339.39162	101.65732
15150.00000	102.34137	-342.22874	102.34137
15200.00000	102.70270	-342.63838	102.70270
15250.00000	102.96919	-345.57921	102.96919
15300.00000	103.55496	-348.46332	103.55496
15350.00000	103.92243	-352.09282	103.92243
15400.00000	104.31224	-353.59541	104.31224
15450.00000	104.64883	-356.63652	104.64883
15500.00000	105.05399	-359.86467	105.05399
15550.00000	105.45157	-363.49136	105.45157
15600.00000	105.77233	-367.03705	105.77233
15650.00000	106.22716	-368.52816	106.22716
15700.00000	106.36546	-372.78268	106.36546
15750.00000	106.77743	-375.26083	106.77743
15800.00000	107.00538	-377.37827	107.00538
15850.00000	107.19081	-380.61691	107.19081
15900.00000	107.38070	-384.37147	107.38070
15950.00000	107.71757	-387.26035	107.71757
16000.00000	107.89848	-389.79867	107.89848
16050.00000	108.14096	-392.82204	108.14096
16100.00000	108.21253	-396.45589	108.21253
16150.00000	108.41391	-399.60399	108.41391
16200.00000	108.66492	-403.11720	108.66492
16250.00000	108.85411	-405.55466	108.85411
16300.00000	109.19013	-408.51495	109.19013
16350.00000	109.27006	-411.54794	109.27006
16400.00000	109.42067	-414.46500	109.42067
16450.00000	109.56400	-417.32610	109.56400
16500.00000	109.70174	-420.47803	109.70174
16550.00000	109.89348	-423.83483	109.89348
16600.00000	110.04989	-426.57024	110.04989
16650.00000	110.14455	-429.57479	110.14455
16700.00000	110.34023	-431.84520	110.34023
16750.00000	110.35328	-434.76087	110.35328
16800.00000	110.48169	-437.92574	110.48169
16850.00000	110.70811	-440.70528	110.70811
16900.00000	110.86416	-443.61910	110.86416
16950.00000	111.01886	-446.19972	111.01886
17000.00000	111.01760	-449.08598	111.01760
17050.00000	111.18080	-451.12039	111.18080
17100.00000	111.25519	-453.05414	111.25519
17150.00000	111.55118	-456.57837	111.55118
17200.00000	111.72236	-459.07407	111.72236
17250.00000	111.80342	-462.32071	111.80342
17300.00000	112.03879	-465.05911	112.03879
17350.00000	112.06349	-467.63451	112.06349
17400.00000	112.30419	-470.61713	112.30419
17450.00000	112.38441	-474.05859	112.38441
17500.00000	112.57132	-476.97798	112.57132
17550.00000	112.72863	-479.98658	112.72863
17600.00000	112.94826	-482.71844	112.94826
17650.00000	113.06726	-486.60952	113.06726
17700.00000	113.16381	-489.95301	113.16381
17750.00000	113.40740	-492.64130	113.40740
17800.00000	113.41993	-496.56730	113.41993
17850.00000	113.56019	-499.36029	113.56019
17900.00000	113.61022	-502.87546	113.61022
17950.00000	113.78236	-506.59633	113.78236
18000.00000	113.86161	-510.50579	113.86161
18050.00000	114.07027	-513.48293	114.07027
18100.00000	114.06121	-517.47014	114.06121
18150.00000	114.10513	-520.36160	114.10513
18200.00000	114.09409	-524.45469	114.09409
18250.00000	114.21851	-527.22276	114.21851
18300.00000	114.29871	-530.69456	114.29871
18350.00000	114.33110	-534.11293	114.33110
18400.00000	114.29837	-537.81047	114.29837
18450.00000	114.26782	-542.38134	114.26782
18500.00000	114.31597	-545.72974	114.31597
18550.00000	114.31196	-548.59148	114.31196
18600.00000	114.40183	-552.54391	114.40183
18650.00000	114.25401	-555.64378	114.25401
18700.00000	114.22840	-559.53409	114.22840
18750.00000	114.26884	-562.86090	114.26884
18800.00000	114.35944	-565.68625	114.35944
18850.00000	114.21272	-569.43022	114.21272
18900.00000	114.16485	-572.67249	114.16485
18950.00000	114.15318	-576.53836	114.15318
19000.00000	113.98288	-579.52500	113.98288
19050.00000	114.07430	-583.02163	114.07430
19100.00000	113.97839	-586.16895	113.97839
19150.00000	114.05001	-589.37118	114.05001
19200.00000	113.96241	-592.44353	113.96241
19250.00000	113.89145	-596.90328	113.89145
19300.00000	113.76583	-599.58462	113.76583
19350.00000	113.72234	-602.99163	113.72234
19400.00000	113.61094	-606.23200	113.61094
19450.00000	113.61356	-609.06234	113.61356
19500.00000	113.45034	-613.18994	113.45034
19550.00000	113.38938	-616.43815	113.38938
19600.00000	113.35922	-620.33202	113.35922
19650.00000	113.20075	-623.20035	113.20075
19700.00000	112.98733	-626.59787	112.98733
19750.00000	112.85014	-629.33795	112.85014
19800.00000	112.81524	-633.55638	112.81524
19850.00000	112.71044	-636.52377	112.71044
19900.00000	112.50887	-640.45991	112.50887
19950.00000	112.33617	-643.60121	112.33617
20000.00000	112.18483	-646.88238	112.18483
20050.00000	112.02719	-650.12226	112.02719
20100.00000	111.76659	-653.37795	111.76659
20150.00000	111.63822	-655.66128	111.63822
20200.00000	111.40103	-659.46923	111.40103
20250.00000	111.14062	-662.44424	111.14062
20300.00000	110.85329	-665.42443	110.85329
20350.00000	110.69991	-668.51556	110.69991
20400.00000	110.38798	-670.54133	110.38798
20450.00000	110.05198	-673.39917	110.05198
20500.00000	109.84309	-676.40776	109.84309
20550.00000	109.35368	-678.14786	109.35368
20600.00000	109.15614	-680.27609	109.15614
20650.00000	108.87033	-682.38233	108.87033
20700.00000	108.50272	-684.28036	108.50272
20750.00000	108.26639	-686.06486	108.26639
20800.00000	107.92407	-687.26138	107.92407
20850.00000	107.69298	-688.80248	107.69298
20900.00000	107.34944	-689.92356	107.34944
20950.00000	107.06218	-690.44639	107.06218
21000.00000	106.81566	-691.11582	106.81566
21050.00000	106.73737	-691.36400	106.73737
21100.00000	106.51364	-691.46891	106.51364
21150.00000	106.43662	-692.06747	106.43662
21200.00000	106.37557	-692.04602	106.37557
21250.00000	106.30018	-693.48367	106.30018
21300.00000	106.32426	-693.36738	106.32426
21350.00000	106.29237	-693.75716	106.29237
21400.00000	106.29146	-694.77383	106.29146
21450.00000	106.33289	-695.63875	106.33289
21500.00000	106.39321	-696.94548	106.39321
21550.00000	106.33559	-697.59546	106.33559
21600.00000	106.46300	-698.87444	106.46300
21650.00000	106.48199	-700.35326	106.48199
21700.00000	106.52540	-701.41057	106.52540
21750.00000	106.59858	-702.74118	106.59858
21800.00000	106.65074	-704.22281	106.65074
21850.00000	106.62906	-705.46787	106.62906
21900.00000	106.68880	-707.13079	106.68880
21950.00000	106.75004	-708.43951	106.75004
22000.00000	106.82725	-709.94897	106.82725
22050.00000	106.84186	-711.23443	106.84186
22100.00000	106.85898	-712.88720	106.85898
22150.00000	106.89016	-714.47043	106.89016
22200.00000	106.99383	-716.06691	106.99383
22250.00000	106.96492	-717.11906	106.96492
22300.00000	106.87794	-718.89371	106.87794
22350.00000	107.04121	-720.72265	107.04121
22400.00000	107.09336	-722.54090	107.09336
22450.00000	107.05864	-723.80559	107.05864
22500.00000	107.03657	-724.19422	107.03657
22550.00000	107.05552	-726.12910	107.05552
22600.00000	107.07645	-728.43433	107.07645
22650.00000	107.13342	-729.83929	107.13342
22700.00000	107.16267	-730.71961	107.16267
22750.00000	107.15730	-730.53707	107.15730
22800.00000	107.21774	-734.00877	107.21774
22850.00000	107.35802	-736.20699	107.35802
22900.00000	107.37140	-736.02905	107.37140
22950.00000	107.44220	-737.37643	107.44220
23000.00000	107.46451	-738.19207	107.46451
23050.00000	107.49870	-740.69239	107.49870
23100.00000	107.69442	-741.20258	107.69442
23150.00000	107.65930	-741.53222	107.65930
23200.00000	107.82851	-744.35279	107.82851
23250.00000	107.74822	-746.95255	107.74822
23300.00000	108.10677	-748.15350	108.10677
23350.00000	107.89662	-749.85527	107.89662
23400.00000	107.96806	-751.21679	107.96806
23450.00000	108.23918	-753.17444	108.23918
23500.00000	108.14474	-753.95803	108.14474
23550.00000	108.22287	-754.39209	108.22287
23600.00000	108.22574	-757.82330	108.22574
23650.00000	108.37300	-759.09234	108.37300
23700.00000	108.65208	-762.81467	108.65208
23750.00000	108.68415	-763.21301	108.68415
23800.00000	108.46093	-763.62799	108.46093
23850.00000	108.68836	-764.93268	108.68836
23900.00000	109.15363	-767.00900	109.15363
23950.00000	108.92527	-769.83974	108.92527
24000.00000	108.87809	-772.54806	108.87809
24050.00000	109.09037	-772.85934	109.09037
24100.00000	109.44495	-776.45070	109.44495
24150.00000	109.51052	-777.96056	109.51052
24200.00000	109.58744	-781.44202	109.58744
24250.00000	109.31263	-781.50610	109.31263
24300.00000	109.73505	-784.45584	109.73505
24350.00000	109.72297	-786.49132	109.72297
24400.00000	109.73731	-789.84828	109.73731
24450.00000	109.58359	-791.28544	109.58359
24500.00000	110.14172	-792.95238	110.14172
24550.00000	110.04013	-797.59134	110.04013
24600.00000	110.60711	-438.76089	110.60711
24650.00000	110.35207	-82.93800	110.35207
24700.00000	110.35846	276.91034	110.35846
24750.00000	110.53731	631.87588	110.53731
24800.00000	110.54510	989.31418	110.54510
24850.00000	110.28803	1347.93810	110.28803
24900.00000	110.50229	1705.73883	110.50229
24950.00000	110.85594	2061.95601	110.85594
25000.00000	110.80824	2053.20185	110.80824
25050.00000	110.90782	2053.05510	110.90782
25100.00000	110.45744	2049.53427	110.45744
25150.00000	110.84301	2047.99281	110.84301
25200.00000	110.64774	2043.52615	110.64774
25250.00000	110.83351	2041.60175	110.83351
25300.00000	110.77117	2039.09761	110.77117
25350.00000	110.68780	2031.78577	110.68780
25400.00000	110.61937	2027.60566	110.61937
25450.00000	110.58391	2025.48115	110.58391
25500.00000	110.38257	2022.98357	110.38257
25550.00000	110.34189	2018.16724	110.34189
25600.00000	110.32416	2015.49796	110.32416
25650.00000	110.13887	2013.05956	110.13887
25700.00000	110.08801	2009.36045	110.08801
25750.00000	109.80088	2005.69045	109.80088
25800.00000	109.63402	2001.73668	109.63402
25850.00000	109.51904	1998.69543	109.51904
25900.00000	109.34234	1994.21120	109.34234
25950.00000	108.99129	1995.05209	108.99129
26000.00000	108.89358	1989.55101	108.89358
26050.00000	108.73396	1986.81801	108.73396
26100.00000	108.52134	1983.94628	108.52134
26150.00000	108.36269	1981.33219	108.36269
26200.00000	108.28850	1978.56780	108.28850
26250.00000	108.04196	1975.85857	108.04196
26300.00000	108.00006	1972.24690	108.00006
26350.00000	107.40446	1971.11313	107.40446
26400.00000	107.33810	1968.47955	107.33810
26450.00000	107.44801	1965.08232	107.44801
26500.00000	107.04458	1962.32552	107.04458
26550.00000	106.80405	1956.96576	106.80405
26600.00000	106.58584	1955.28484	106.58584
26650.00000	106.53838	1955.83638	106.53838
26700.00000	106.37586	1952.59542	106.37586
26750.00000	106.02825	1950.47205	106.02825
26800.00000	105.88180	1945.31966	105.88180
26850.00000	106.06062	1945.32917	106.06062
26900.00000	105.93572	1943.70535	105.93572
26950.00000	105.90207	1940.33221	105.90207
27000.00000	105.40529	1939.49108	105.40529
27050.00000	105.58265	1936.64749	105.58265
27100.00000	105.27105	1935.65441	105.27105
27150.00000	105.18111	1932.19766	105.18111
27200.00000	105.22517	1931.03064	105.22517
27250.00000	104.81916	1929.18761	104.81916
27300.00000	104.54731	1926.80510	104.54731
27350.00000	104.69702	1925.97725	104.69702
27400.00000	104.39579	1923.14862	104.39579
27450.00000	104.30870	1921.54958	104.30870
27500.00000	104.32151	1919.91156	104.32151
27550.00000	104.37821	1917.43946	104.37821
27600.00000	104.62854	1913.96176	104.62854
27650.00000	104.12424	1914.17941	104.12424
27700.00000	104.25951	1908.61872	104.25951
27750.00000	104.20718	1906.56064	104.20718
27800.00000	104.25883	1902.52345	104.25883
27850.00000	104.44037	1903.91516	104.44037
27900.00000	103.99801	1901.97426	103.99801
27950.00000	103.46644	1898.97265	103.46644
28000.00000	103.58529	1897.12077	103.58529
28050.00000	104.08927	1893.65561	104.08927
28100.00000	103.32953	1891.84755	103.32953
28150.00000	103.48444	1890.56294	103.48444
28200.00000	103.61269	1885.90855	103.61269
28250.00000	103.24768	1883.07999	103.24768
28300.00000	102.86483	1882.74251	102.86483
28350.00000	103.10353	1881.53800	103.10353
28400.00000	102.90482	1880.88542	102.90482
28450.00000	103.38581	1876.88827	103.38581
28500.00000	102.89930	1876.65203	102.89930
28550.00000	102.68716	1877.61925	102.68716
28600.00000	102.78463	1874.78754	102.78463
28650.00000	102.94778	1870.43222	102.94778
28700.00000	102.73232	1870.86544	102.73232
28750.00000	103.37457	1870.19647	103.37457
28800.00000	103.13637	1869.12281	103.13637
28850.00000	102.54627	1864.39318	102.54627
28900.00000	102.65596	1863.58114	102.65596
28950.00000	102.54820	1863.70405	102.54820
29000.00000	102.81838	1861.78708	102.81838
29050.00000	102.61858	1862.27579	102.61858
29100.00000	102.57473	1861.41391	102.57473
29150.00000	102.47318	1860.19079	102.47318
29200.00000	102.50548	1856.98102	102.50548
29250.00000	102.84747	1856.59151	102.84747
29300.00000	102.63307	1854.47335	102.63307
29350.00000	103.05668	1852.48939	103.05668
29400.00000	102.95157	1852.05452	102.95157
29450.00000	102.92448	1850.25875	102.92448
29500.00000	103.28315	1849.81537	103.28315
29550.00000	103.14952	1845.57011	103.14952
29600.00000	103.14348	1845.55718	103.14348
29650.00000	103.29059	1842.79379	103.29059
29700.00000	103.21795	1843.35641	103.21795
29750.00000	103.22766	1842.50492	103.22766
29800.00000	103.06366	1839.50252	103.06366
29850.00000	103.25933	1837.31175	103.25933
29900.00000	103.44653	1837.50242	103.44653
29950.00000	102.75648	1836.29563	102.75648
30000.00000	103.19835	1836.07350	103.19835
30050.00000	103.22794	1833.38749	103.22794
30100.00000	102.93955	1833.57076	102.93955
30150.00000	102.99046	1829.62823	102.99046
30200.00000	103.04011	1828.07323	103.04011
30250.00000	102.78726	1828.30951	102.78726
30300.00000	102.48319	1828.72922	102.48319
30350.00000	102.54952	1829.74252	102.54952
30400.00000	102.55137	1827.17765	102.55137
30450.00000	102.14881	1827.20267	102.14881
30500.00000	102.18047	1826.30569	102.18047
30550.00000	102.11694	1828.18510	102.11694
30600.00000	102.02898	1828.79365	102.02898
30650.00000	102.04563	1829.28077	102.04563
30700.00000	102.13018	1828.70664	102.13018
30750.00000	101.92581	1830.91388	101.92581
30800.00000	102.01419	1831.21320	102.01419
30850.00000	102.18964	1833.09479	102.18964
30900.00000	102.10306	1835.09412	102.10306
30950.00000	102.48293	1834.67398	102.48293
31000.00000	102.66499	1834.86130	102.66499
31050.00000	102.98282	1836.38105	102.98282
31100.00000	103.43145	1837.19924	103.43145
31150.00000	103.39163	1837.06244	103.39163
31200.00000	104.11004	1836.75603	104.11004
31250.00000	104.31320	1836.54135	104.31320
31300.00000	104.66934	1835.42440	104.66934
31350.00000	105.12871	1834.93213	105.12871
31400.00000	105.31403	1833.01472	105.31403
31450.00000	105.72972	1831.37911	105.72972
31500.00000	105.96307	1828.80858	105.96307
31550.00000	106.25447	1827.19465	106.25447
31600.00000	106.68584	1823.89089	106.68584
31650.00000	106.86979	1821.68714	106.86979
31700.00000	107.05002	1819.82083	107.05002
31750.00000	107.32414	1817.82543	107.32414
31800.00000	107.42787	1813.92927	107.42787
31850.00000	107.65311	1810.34723	107.65311
31900.00000	107.53753	1808.24600	107.53753
31950.00000	107.79507	1805.62314	107.79507
32000.00000	107.77053	1802.21817	107.77053
32050.00000	107.88972	1799.53351	107.88972
32100.00000	107.91548	1796.39804	107.91548
32150.00000	107.97786	1793.97304	107.97786
32200.00000	108.00236	1790.14763	108.00236
32250.00000	107.92787	1787.11155	107.92787
32300.00000	107.89846	1784.91218	107.89846
32350.00000	107.79292	1782.09179	107.79292
32400.00000	107.84538	1779.75841	107.84538
32450.00000	107.73111	1776.27668	107.73111
32500.00000	107.59737	1774.27752	107.59737
32550.00000	107.66160	1770.66813	107.66160
32600.00000	107.56344	1769.17578	107.56344
32650.00000	107.55527	1765.85009	107.55527
32700.00000	107.38968	1763.38874	107.38968
32750.00000	107.29676	1760.24432	107.29676
32800.00000	107.39396	1758.97479	107.39396
32850.00000	107.32109	1756.01617	107.32109
32900.00000	107.12803	1753.11074	107.12803
32950.00000	106.96941	1749.80668	106.96941
33000.00000	106.80924	1749.49516	106.80924
33050.00000	106.86593	1745.84731	106.86593
33100.00000	106.76373	1743.79859	106.76373
33150.00000	106.73251	1742.49943	106.73251
33200.00000	106.85698	1740.45670	106.85698
33250.00000	106.62005	1739.15712	106.62005
33300.00000	106.58656	1736.34835	106.58656
33350.00000	106.49278	1733.94574	106.49278
33400.00000	106.41499	1732.94836	106.41499
33450.00000	106.56517	1729.94745	106.56517
33500.00000	106.75736	1730.14851	106.75736
33550.00000	106.52714	1725.72375	106.52714
33600.00000	106.75684	1724.89592	106.75684
33650.00000	106.80492	1721.78009	106.80492
33700.00000	106.82785	1720.06124	106.82785
33750.00000	106.75933	1717.55220	106.75933
33800.00000	106.94472	1715.75702	106.94472
33850.00000	106.73130	1712.95604	106.73130
33900.00000	107.01784	1710.24523	107.01784
33950.00000	107.17233	1708.11684	107.17233
34000.00000	107.21347	1704.95906	107.21347
34050.00000	107.16555	1702.45636	107.16555
34100.00000	107.15874	1701.30799	107.15874
34150.00000	107.22511	1698.36519	107.22511
34200.00000	107.32543	1696.40663	107.32543
34250.00000	107.41752	1692.21624	107.41752
34300.00000	107.30633	1690.44470	107.30633
34350.00000	107.48387	1687.86612	107.48387
34400.00000	107.17349	1687.80730	107.17349
34450.00000	107.36315	1681.97399	107.36315
34500.00000	107.25785	1679.93427	107.25785
34550.00000	107.39503	1678.69777	107.39503
34600.00000	107.10367	1674.79762	107.10367
34650.00000	107.54603	1675.44233	107.54603
34700.00000	107.01121	1674.28081	107.01121
34750.00000	107.23894	1667.31723	107.23894
34800.00000	107.38107	1668.41213	107.38107
34850.00000	107.47561	1668.10564	107.47561
34900.00000	107.61338	1664.88052	107.61338
34950.00000	107.51999	1663.97670	107.51999
35000.00000	107.45610	1662.62116	107.45610
35050.00000	107.46154	1662.20282	107.46154
35100.00000	107.67775	1660.74683	107.67775
35150.00000	107.59754	1659.49510	107.59754
35200.00000	107.74203	1657.09745	107.74203
35250.00000	108.04809	1656.07239	108.04809
35300.00000	108.14886	1654.12617	108.14886
35350.00000	108.36330	1652.08471	108.36330
35400.00000	108.45669	1650.99118	108.45669
35450.00000	108.76710	1650.46123	108.76710
35500.00000	108.61463	1649.07169	108.61463
35550.00000	109.18256	1648.52379	109.18256
35600.00000	109.25487	1646.59167	109.25487
35650.00000	109.53576	1645.03385	109.53576
35700.00000	109.72000	1643.06103	109.72000
35750.00000	109.60854	1643.06256	109.60854
35800.00000	110.07072	1643.13438	110.07072
35850.00000	110.48194	1640.16859	110.48194
35900.00000	110.74259	1637.75268	110.74259
35950.00000	111.12753	1636.95753	111.12753
36000.00000	111.33299	1636.15630	111.33299
36050.00000	111.60357	1634.45478	111.60357
36100.00000	112.05634	1633.11037	112.05634
36150.00000	112.17437	1631.59745	112.17437
36200.00000	112.51828	1630.14550	112.51828
36250.00000	112.82969	1627.93422	112.82969
36300.00000	112.92012	1626.47298	112.92012
36350.00000	113.52168	1625.23607	113.52168
36400.00000	113.92712	1623.27738	113.92712
36450.00000	113.98290	1620.67069	113.98290
36500.00000	114.62825	1620.11834	114.62825
36550.00000	114.78723	1616.76496	114.78723
36600.00000	115.12027	1614.88697	115.12027
36650.00000	115.51528	1612.76889	115.51528
36700.00000	115.84524	1610.28089	115.84524
36750.00000	116.14051	1607.56738	116.14051
36800.00000	116.39635	1605.77484	116.39635
36850.00000	116.52114	1603.50038	116.52114
36900.00000	117.06035	1600.79179	117.06035
36950.00000	117.12501	1598.49047	117.12501
37000.00000	117.14411	1596.87480	117.14411
37050.00000	117.43042	1595.13089	117.43042
37100.00000	117.86776	1591.56195	117.86776
37150.00000	118.09070	1588.36447	118.09070
37200.00000	118.58942	1587.73100	118.58942
37250.00000	118.40756	1584.88756	118.40756
37300.00000	118.72948	1582.28376	118.72948
37350.00000	119.26987	1580.02401	119.26987
37400.00000	119.17531	1578.27691	119.17531
37450.00000	119.34068	1576.23311	119.34068
37500.00000	119.99139	1572.84341	119.99139
37550.00000	119.86737	1570.69061	119.86737
37600.00000	120.19174	1568.15664	120.19174
37650.00000	120.35739	1565.84670	120.35739
37700.00000	120.61577	1562.04833	120.61577
37750.00000	120.85196	1560.43037	120.85196
37800.00000	120.92244	1556.94283	120.92244
37850.00000	121.17366	1552.68510	121.17366
37900.00000	121.32707	1550.47150	121.32707
37950.00000	121.56396	1548.16705	121.56396
38000.00000	121.63462	1545.30056	121.63462
38050.00000	121.87099	1541.66071	121.87099
38100.00000	122.07907	1538.25872	122.07907
38150.00000	122.18302	1534.43111	122.18302
38200.00000	122.44744	1530.40028	122.44744
38250.00000	122.56123	1527.22110	122.56123
38300.00000	122.78892	1522.87620	122.78892
38350.00000	122.80682	1519.63614	122.80682
38400.00000	122.93999	1515.67744	122.93999
38450.00000	123.05397	1510.88139	123.05397
38500.00000	123.19818	1506.50517	123.19818
38550.00000	123.35591	1502.95584	123.35591
38600.00000	123.45444	1498.59721	123.45444
38650.00000	123.56238	1493.71037	123.56238
38700.00000	123.56456	1489.08283	123.56456
38750.00000	123.65005	1484.56542	123.65005
38800.00000	123.72602	1480.08160	123.72602
38850.00000	123.72180	1474.91177	123.72180
38900.00000	123.76599	1470.24825	123.76599
38950.00000	123.73063	1465.23328	123.73063
39000.00000	123.73910	1460.13906	123.73910
39050.00000	123.78218	1455.32826	123.78218
39100.00000	123.59787	1450.33938	123.59787
39150.00000	123.53505	1445.12172	123.53505
39200.00000	123.48947	1440.52156	123.48947
39250.00000	123.41844	1435.06136	123.41844
39300.00000	123.33127	1430.03851	123.33127
39350.00000	123.16432	1425.40236	123.16432
39400.00000	123.03559	1420.00442	123.03559
39450.00000	122.84166	1415.48314	122.84166
39500.00000	122.72447	1410.26607	122.72447
39550.00000	122.51053	1405.25561	122.51053
39600.00000	122.23205	1400.40129	122.23205
39650.00000	122.09142	1396.02674	122.09142
39700.00000	121.83454	1391.29193	121.83454
39750.00000	121.61528	1386.25627	121.61528
39800.00000	121.39979	1381.49263	121.39979
39850.00000	121.07730	1377.16015	121.07730
39900.00000	120.84595	1372.68532	120.84595
39950.00000	120.56819	1368.52319	120.56819
40000.00000	120.10626	1365.29399	120.10626
40050.00000	119.93109	1360.09401	119.93109
40100.00000	119.62034	1355.88019	119.62034
40150.00000	119.27832	1351.84796	119.27832
40200.00000	118.95938	1347.90740	118.95938
40250.00000	118.64157	1344.60726	118.64157
40300.00000	118.36490	1341.29234	118.36490
40350.00000	117.84848	1338.15609	117.84848
40400.00000	117.48788	1334.90801	117.48788
40450.00000	117.15724	1332.19126	117.15724
40500.00000	116.90536	1329.58802	116.90536
40550.00000	116.52717	1326.40204	116.52717
40600.00000	116.18503	1324.25571	116.18503
40650.00000	115.83948	1322.33534	115.83948
40700.00000	115.37364	1321.16372	115.37364
40750.00000	115.25046	1318.85760	115.25046
40800.00000	114.89607	1316.82559	114.89607
40850.00000	114.60744	1316.04956	114.60744
40900.00000	114.25578	1314.41215	114.25578
40950.00000	113.91062	1314.21504	113.91062
41000.00000	113.61098	1313.17615	113.61098
41050.00000	113.51491	1313.01638	113.51491
41100.00000	113.43586	1311.75529	113.43586
41150.00000	113.44370	1313.30866	113.44370
41200.00000	113.33855	1312.03949	113.33855
41250.00000	113.16460	1309.89817	113.16460
41300.00000	112.84332	1311.99086	112.84332
41350.00000	112.89201	1313.09483	112.89201
41400.00000	112.91067	1307.94922	112.91067
41450.00000	113.13978	1310.97219	113.13978
41500.00000	112.94202	1310.41356	112.94202
41550.00000	112.90872	1314.69035	112.90872
41600.00000	112.76656	1312.59940	112.76656
41650.00000	113.23281	1311.07812	113.23281
41700.00000	113.45119	1311.90616	113.45119
41750.00000	113.23739	1316.90507	113.23739
41800.00000	112.66000	1310.85870	112.66000
41850.00000	112.79970	1311.80401	112.79970
41900.00000	112.78449	1312.84370	112.78449
41950.00000	113.91293	1317.64682	113.91293
42000.00000	113.20831	1311.54801	113.20831
42050.00000	112.40910	1311.68434	112.40910
42100.00000	113.16301	1311.28893	113.16301
42150.00000	112.50295	1307.34963	112.50295
42200.00000	112.60310	1314.02899	112.60310
42250.00000	112.88658	1313.82066	112.88658
42300.00000	111.84400	1310.51952	111.84400
42350.00000	112.29546	1312.49651	112.29546
42400.00000	112.42967	1313.78978	112.42967
42450.00000	113.07040	1309.16185	113.07040
42500.00000	112.34315	1308.93906	112.34315
42550.00000	112.46448	1321.18951	112.46448
42600.00000	112.27571	1312.24360	112.27571
42650.00000	112.08792	1314.04968	112.08792
42700.00000	111.95298	1314.24870	111.95298
42750.00000	112.81064	1309.99025	112.81064
42800.00000	112.32363	1305.02526	112.32363
42850.00000	111.76136	1303.81684	111.76136
42900.00000	112.98216	1309.45204	112.98216
42950.00000	111.71743	1303.57600	111.71743
43000.00000	112.49282	1297.34791	112.49282
43050.00000	111.80994	1295.26976	111.80994
43100.00000	112.34184	1299.31034	112.34184
43150.00000	111.19879	1295.12976	111.19879
43200.00000	111.70222	1292.41575	111.70222
43250.00000	111.67720	1290.21766	111.67720
43300.00000	111.42469	1287.19493	111.42469
43350.00000	112.18947	1285.18101	112.18947
43400.00000	111.50899	1284.07309	111.50899
43450.00000	112.32424	1282.22261	112.32424
43500.00000	110.94017	1273.81044	110.94017
43550.00000	111.58948	1270.96306	111.58948
43600.00000	111.21783	1266.31667	111.21783
43650.00000	111.42355	1257.86386	111.42355
43700.00000	110.82852	1257.57924	110.82852
43750.00000	110.14967	1256.55950	110.14967
43800.00000	110.54988	1247.74804	110.54988
43850.00000	110.61076	1243.76611	110.61076
43900.00000	110.51989	1242.28954	110.51989
43950.00000	110.31110	1236.44674	110.31110
44000.00000	109.49597	1230.92586	109.49597
44050.00000	109.42090	1227.78286	109.42090
44100.00000	109.29765	1215.98978	109.29765
44150.00000	108.80259	1219.05609	108.80259
44200.00000	108.37434	1216.93253	108.37434
44250.00000	108.55733	1211.52000	108.55733
44300.00000	108.36322	1203.30776	108.36322
44350.00000	107.06800	1201.13596	107.06800
44400.00000	107.66105	1197.30728	107.66105
44450.00000	107.89514	1195.84405	107.89514
44500.00000	107.15981	1192.16014	107.15981
44550.00000	108.55421	1180.79419	108.55421
44600.00000	107.11221	1186.02837	107.11221
44650.00000	106.31529	1174.95512	106.31529
44700.00000	106.00643	1173.80997	106.00643
44750.00000	106.01329	1173.12197	106.01329
44800.00000	106.27273	1165.91448	106.27273
44850.00000	105.59342	1161.46132	105.59342
44900.00000	105.17877	1160.50127	105.17877
44950.00000	105.55515	1153.47286	105.55515
45000.00000	105.30488	1145.21146	105.30488
45050.00000	103.87716	1151.67193	103.87716
45100.00000	104.38455	1143.73087	104.38455
45150.00000	104.26407	1133.17599	104.26407
45200.00000	103.80215	1136.42992	103.80215
45250.00000	103.53154	1129.70952	103.53154
45300.00000	103.72564	1126.20932	103.72564
45350.00000	103.21293	1117.63046	103.21293
45400.00000	102.96110	1117.87833	102.96110
45450.00000	103.42594	1108.70676	103.42594
45500.00000	101.70450	1100.36616	101.70450
45550.00000	101.58266	1100.72431	101.58266
45600.00000	102.93908	1093.15551	102.93908
45650.00000	100.75327	1088.95166	100.75327
45700.00000	100.52978	1084.64283	100.52978
45750.00000	101.55797	1085.71224	101.55797
45800.00000	100.02180	1076.79820	100.02180
45850.00000	99.85385	1070.42031	99.85385
45900.00000	99.35786	1069.35943	99.35786
45950.00000	98.80693	1067.91064	98.80693
46000.00000	97.67535	1050.24098	97.67535
46050.00000	98.29099	1047.68983	98.29099
46100.00000	96.56729	1055.94302	96.56729
46150.00000	96.81155	1050.82324	96.81155
46200.00000	94.41942	1038.05448	94.41942
46250.00000	95.04413	1036.88955	95.04413
46300.00000	94.37616	1035.44296	94.37616
46350.00000	95.79507	1020.48521	95.79507
46400.00000	93.68407	1026.06869	93.68407
46450.00000	91.00677	1023.85973	91.00677
46500.00000	92.37149	1025.69515	92.37149
46550.00000	91.12408	1027.47895	91.12408
46600.00000	91.65418	1026.49736	91.65418
46650.00000	88.91964	1019.45956	88.91964
46700.00000	88.72245	1031.42471	88.72245
46750.00000	89.75255	1032.62116	89.75255
46800.00000	87.35580	1023.74227	87.35580
46850.00000	88.33735	679.01014	88.33735
46900.00000	87.89964	675.18857	87.89964
46950.00000	88.92541	671.30371	88.92541
47000.00000	88.66510	669.24602	88.66510
47050.00000	89.77409	661.37667	89.77409
47100.00000	89.20845	660.92629	89.20845
47150.00000	89.47509	662.05082	89.47509
47200.00000	87.21670	662.59010	87.21670
47250.00000	88.95654	656.10602	88.95654
47300.00000	88.54752	643.48274	88.54752
47350.00000	88.42918	299.01676	88.42918
47400.00000	88.16885	298.09924	88.16885
47450.00000	89.11684	309.70735	89.11684
47500.00000	85.42846	287.59677	85.42846
47550.00000	85.68138	-59.13320	85.68138
47600.00000	87.14044	-72.76744	87.14044
47650.00000	88.35714	-65.34623	88.35714
47700.00000	87.89328	-68.94155	87.89328
47750.00000	87.19490	-55.38926	87.19490
47800.00000	87.49001	-83.56854	87.49001
47850.00000	89.60307	-426.94572	89.60307
47900.00000	88.51593	-785.91040	88.51593
47950.00000	89.10355	-787.65931	89.10355
48000.00000	88.61385	-781.48973	88.61385
48050.00000	90.13855	-790.95184	90.13855
48100.00000	89.40842	-799.64617	89.40842
48150.00000	89.64917	-1161.86485	89.64917
48200.00000	89.85335	-1161.54677	89.85335
48250.00000	89.64975	-1171.28225	89.64975
48300.00000	89.69366	-1172.42304	89.69366
48350.00000	90.42851	-1179.64505	90.42851
48400.00000	90.25493	-1524.27266	90.25493
48450.00000	90.51332	-1534.39905	90.51332
48500.00000	91.16998	-1541.08024	91.16998
48550.00000	89.81119	-1542.08074	89.81119
48600.00000	91.55948	-1906.99145	91.55948
48650.00000	92.49651	-1910.18153	92.49651
48700.00000	93.19133	-1919.71836	93.19133
48750.00000	90.08767	-2273.00464	90.08767
48800.00000	91.69553	-2287.16403	91.69553
48850.00000	92.74610	-2285.34522	92.74610
48900.00000	91.16335	-2643.72952	91.16335
48950.00000	91.84030	-2661.85912	91.84030
49000.00000	92.41692	-2664.01172	92.41692
49050.00000	92.14096	-2667.97604	92.14096
49100.00000	92.36661	-3030.73764	92.36661
49150.00000	93.97857	-3396.15655	93.97857
49200.00000	92.03268	-3402.64656	92.03268
49250.00000	92.19146	-3760.34204	92.19146
49300.00000	93.75555	-3410.38725	93.75555
49350.00000	91.55597	-3404.00781	91.55597
49400.00000	91.32083	-3053.73319	91.32083
49450.00000	91.35395	-2706.63130	91.35395
49500.00000	92.51753	-2365.99794	92.51753
49550.00000	92.97809	-2016.01529	92.97809
49600.00000	91.95489	-2015.21301	91.95489
49650.00000	93.29037	-2010.60016	93.29037
49700.00000	93.07480	-1691.43433	93.07480
49750.00000	93.71704	-1676.98484	93.71704
49800.00000	93.16763	-1695.04931	93.16763
49850.00000	93.83063	-1690.98615	93.83063
49900.00000	92.51168	-1348.53140	92.51168
49950.00000	94.56356	-1007.71981	94.56356
