---ACOUSTIC CALIBRATION---
Filename: C:\Data\AZH DATA\AZH82\RightPrimary.calib
Date: 8/27/2019 4:49:26 PM
Format: 4
Probe Tube Correction File: C:\Data\Probe Tube Calibrations\50_ProbeTube.calib
Experiment VIs: 850
EPL_CFTS.exe V12.0.1 (2012)
DAQmx V9.6

Attenuation (dB): 40.000000
Min Freq (Hz): 50.000000
Max Freq (Hz): 49950.000000
Freq Step (Hz): 50.000000
Sample Rate (Hz): 100000.000000
[Smoothing]
Method=None
MA.Iterations=0
MA.Length=0
Loess.Length=0
Loess.Type=Linear
Loess.Robust=FALSE


Freq(Hz)	Mag(dB)	Phase(deg)	Unsmoothed(dB)

50.00000	109.27218	525.87550	109.27218
100.00000	76.30072	599.77474	76.30072
150.00000	69.83956	533.70303	69.83956
200.00000	81.51425	454.68545	81.51425
250.00000	87.53098	453.23312	87.53098
300.00000	70.53989	436.64631	70.53989
350.00000	83.32179	388.46170	83.32179
400.00000	86.22099	383.56807	86.22099
450.00000	87.09003	360.11132	87.09003
500.00000	89.28635	392.13016	89.28635
550.00000	90.94291	379.50351	90.94291
600.00000	94.55737	370.55031	94.55737
650.00000	97.10796	353.35006	97.10796
700.00000	99.03369	338.41663	99.03369
750.00000	100.83292	320.49177	100.83292
800.00000	101.02557	296.82495	101.02557
850.00000	100.71782	280.38284	100.71782
900.00000	99.17803	262.04355	99.17803
950.00000	97.26181	259.85227	97.26181
1000.00000	95.84010	261.20670	95.84010
1050.00000	93.63800	278.44200	93.63800
1100.00000	95.80017	299.63988	95.80017
1150.00000	98.64457	303.34869	98.64457
1200.00000	101.45510	302.19508	101.45510
1250.00000	103.15389	292.17783	103.15389
1300.00000	104.71904	287.53374	104.71904
1350.00000	105.94002	276.28814	105.94002
1400.00000	106.60446	268.90616	106.60446
1450.00000	107.71799	262.98189	107.71799
1500.00000	109.09236	254.74748	109.09236
1550.00000	109.61103	247.24412	109.61103
1600.00000	111.12838	236.80157	111.12838
1650.00000	111.97883	220.44602	111.97883
1700.00000	110.75608	210.39128	110.75608
1750.00000	110.43555	204.61623	110.43555
1800.00000	110.11441	200.49756	110.11441
1850.00000	110.26548	199.84761	110.26548
1900.00000	111.51292	196.12835	111.51292
1950.00000	112.14569	182.47381	112.14569
2000.00000	111.20485	170.73735	111.20485
2050.00000	110.05153	175.97290	110.05153
2100.00000	111.70705	174.87338	111.70705
2150.00000	112.43782	162.87546	112.43782
2200.00000	112.27554	153.20622	112.27554
2250.00000	111.74184	146.16284	111.74184
2300.00000	111.81097	141.02998	111.81097
2350.00000	111.61400	134.19778	111.61400
2400.00000	111.30688	128.26162	111.30688
2450.00000	111.07985	122.08892	111.07985
2500.00000	110.66673	116.85181	110.66673
2550.00000	110.24665	111.92207	110.24665
2600.00000	109.75477	107.34110	109.75477
2650.00000	109.18212	103.42996	109.18212
2700.00000	108.81021	99.49653	108.81021
2750.00000	108.05345	96.11331	108.05345
2800.00000	107.44755	93.55921	107.44755
2850.00000	106.84684	91.56427	106.84684
2900.00000	106.21336	89.16553	106.21336
2950.00000	105.65052	88.46332	105.65052
3000.00000	104.88245	87.34371	104.88245
3050.00000	104.06496	86.38012	104.06496
3100.00000	103.20050	88.03673	103.20050
3150.00000	101.96594	89.58333	101.96594
3200.00000	100.68427	96.40042	100.68427
3250.00000	99.98066	106.13671	99.98066
3300.00000	99.59284	119.93406	99.59284
3350.00000	100.24453	137.23507	100.24453
3400.00000	102.29818	152.21884	102.29818
3450.00000	104.85669	158.28342	104.85669
3500.00000	107.37205	158.72445	107.37205
3550.00000	109.30483	154.72015	109.30483
3600.00000	111.03005	150.66153	111.03005
3650.00000	112.44804	145.23119	112.44804
3700.00000	113.74336	140.43456	113.74336
3750.00000	115.04793	134.70119	115.04793
3800.00000	116.22566	128.07762	116.22566
3850.00000	117.21764	121.15981	117.21764
3900.00000	118.14345	114.29635	118.14345
3950.00000	119.04155	107.10171	119.04155
4000.00000	119.85858	99.48512	119.85858
4050.00000	120.62361	92.17865	120.62361
4100.00000	121.41691	84.64127	121.41691
4150.00000	122.40006	76.25414	122.40006
4200.00000	123.10249	66.08829	123.10249
4250.00000	123.76065	55.05343	123.76065
4300.00000	124.16304	42.98275	124.16304
4350.00000	124.25907	30.65983	124.25907
4400.00000	124.10218	19.16186	124.10218
4450.00000	123.77282	 8.68221	123.77282
4500.00000	123.39311	-1.09210	123.39311
4550.00000	122.94045	-9.90947	122.94045
4600.00000	122.44569	-18.19823	122.44569
4650.00000	122.01941	-26.14123	122.01941
4700.00000	121.52556	-34.49496	121.52556
4750.00000	120.90809	-43.03728	120.90809
4800.00000	120.08087	-51.69067	120.08087
4850.00000	118.97099	-59.33576	118.97099
4900.00000	117.64765	-65.14495	117.64765
4950.00000	116.25320	-68.16594	116.25320
5000.00000	115.04328	-68.66595	115.04328
5050.00000	113.91408	-68.64837	113.91408
5100.00000	112.74064	-64.54567	112.74064
5150.00000	112.69323	-59.33123	112.69323
5200.00000	111.90807	-54.45054	111.90807
5250.00000	113.45426	-42.35843	113.45426
5300.00000	115.70528	-51.22371	115.70528
5350.00000	115.80455	-63.80611	115.80455
5400.00000	115.26937	-71.02656	115.26937
5450.00000	114.74527	-75.29702	114.74527
5500.00000	114.34252	-78.46513	114.34252
5550.00000	114.02378	-81.05244	114.02378
5600.00000	113.78489	-83.54118	113.78489
5650.00000	113.57081	-85.84508	113.57081
5700.00000	113.36982	-88.38004	113.36982
5750.00000	113.22786	-90.71316	113.22786
5800.00000	113.04870	-93.10549	113.04870
5850.00000	112.92286	-95.60249	112.92286
5900.00000	112.79990	-97.91775	112.79990
5950.00000	112.68102	-100.26404	112.68102
6000.00000	112.58314	-102.40379	112.58314
6050.00000	112.45992	-104.63141	112.45992
6100.00000	112.41435	-106.93675	112.41435
6150.00000	112.35455	-109.28436	112.35455
6200.00000	112.31869	-111.94315	112.31869
6250.00000	112.28990	-114.57883	112.28990
6300.00000	112.21792	-117.41418	112.21792
6350.00000	112.13511	-120.14676	112.13511
6400.00000	112.06580	-122.88769	112.06580
6450.00000	111.98764	-125.73710	111.98764
6500.00000	111.90332	-128.48217	111.90332
6550.00000	111.80977	-130.99899	111.80977
6600.00000	111.74103	-133.68830	111.74103
6650.00000	111.66617	-136.32939	111.66617
6700.00000	111.61078	-139.03395	111.61078
6750.00000	111.53430	-141.60028	111.53430
6800.00000	111.48029	-144.16402	111.48029
6850.00000	111.43464	-146.80110	111.43464
6900.00000	111.40948	-149.60292	111.40948
6950.00000	111.35044	-152.11211	111.35044
7000.00000	111.33015	-154.73674	111.33015
7050.00000	111.28738	-157.61260	111.28738
7100.00000	111.29377	-160.65206	111.29377
7150.00000	111.26481	-163.71209	111.26481
7200.00000	111.23228	-166.71881	111.23228
7250.00000	111.17308	-169.94200	111.17308
7300.00000	111.14392	-173.06013	111.14392
7350.00000	111.08872	-176.23362	111.08872
7400.00000	111.04488	-179.59515	111.04488
7450.00000	110.95130	-183.01136	110.95130
7500.00000	110.86999	-186.80157	110.86999
7550.00000	110.79391	-189.89283	110.79391
7600.00000	110.67218	-193.25460	110.67218
7650.00000	110.52920	-196.75139	110.52920
7700.00000	110.46445	-200.09343	110.46445
7750.00000	110.29140	-203.60201	110.29140
7800.00000	110.12334	-206.90330	110.12334
7850.00000	109.99268	-210.17298	109.99268
7900.00000	109.84724	-213.39154	109.84724
7950.00000	109.70874	-216.75949	109.70874
8000.00000	109.51920	-220.09526	109.51920
8050.00000	109.32120	-223.71155	109.32120
8100.00000	109.15940	-226.32155	109.15940
8150.00000	108.91538	-229.45291	108.91538
8200.00000	108.70906	-232.39682	108.70906
8250.00000	108.48109	-235.72204	108.48109
8300.00000	108.24710	-238.58038	108.24710
8350.00000	107.98009	-241.46503	107.98009
8400.00000	107.72875	-244.69370	107.72875
8450.00000	107.44283	-247.70723	107.44283
8500.00000	107.17248	-250.96501	107.17248
8550.00000	106.94711	-253.66641	106.94711
8600.00000	106.68013	-257.08115	106.68013
8650.00000	106.36565	-259.96059	106.36565
8700.00000	106.16912	-263.19367	106.16912
8750.00000	105.81172	-265.22440	105.81172
8800.00000	105.56087	-268.21812	105.56087
8850.00000	105.19545	-270.67877	105.19545
8900.00000	104.89953	-272.90037	104.89953
8950.00000	104.57070	-275.09335	104.57070
9000.00000	104.13858	-277.46725	104.13858
9050.00000	103.75869	-279.92708	103.75869
9100.00000	103.41965	-282.23004	103.41965
9150.00000	103.09128	-284.38231	103.09128
9200.00000	102.84010	-286.85022	102.84010
9250.00000	102.51832	-289.07107	102.51832
9300.00000	102.31709	-290.79856	102.31709
9350.00000	102.13735	-292.83533	102.13735
9400.00000	101.89796	-294.20652	101.89796
9450.00000	101.71310	-295.27645	101.71310
9500.00000	101.53092	-295.46927	101.53092
9550.00000	101.51163	-295.50257	101.51163
9600.00000	101.39776	-296.68749	101.39776
9650.00000	101.17675	-298.52732	101.17675
9700.00000	100.93951	-299.43370	100.93951
9750.00000	100.76342	-302.14534	100.76342
9800.00000	100.54449	-303.45679	100.54449
9850.00000	100.41648	-304.92531	100.41648
9900.00000	100.12703	-307.08230	100.12703
9950.00000	100.03521	-308.50686	100.03521
10000.00000	99.96636	-310.79628	99.96636
10050.00000	99.85118	-311.79722	99.85118
10100.00000	99.68123	-313.16176	99.68123
10150.00000	99.42444	-315.14983	99.42444
10200.00000	99.26360	-316.67519	99.26360
10250.00000	99.01192	-318.67053	99.01192
10300.00000	98.92643	-320.50906	98.92643
10350.00000	98.68915	-322.77982	98.68915
10400.00000	98.46444	-325.57787	98.46444
10450.00000	98.41929	-328.48790	98.41929
10500.00000	98.37052	-331.04992	98.37052
10550.00000	98.30066	-333.23182	98.30066
10600.00000	98.17339	-335.24208	98.17339
10650.00000	98.02977	-336.63647	98.02977
10700.00000	97.92721	-339.20285	97.92721
10750.00000	97.76553	-341.42259	97.76553
10800.00000	97.49880	-343.48625	97.49880
10850.00000	97.22254	-346.73778	97.22254
10900.00000	97.00850	-348.81203	97.00850
10950.00000	96.77374	-351.18007	96.77374
11000.00000	96.53646	-353.60087	96.53646
11050.00000	96.15654	-355.89670	96.15654
11100.00000	95.88018	-358.31273	95.88018
11150.00000	95.49198	-360.07908	95.49198
11200.00000	95.21994	-361.86803	95.21994
11250.00000	94.81197	-363.82693	94.81197
11300.00000	94.35722	-365.97042	94.35722
11350.00000	93.92748	-368.06766	93.92748
11400.00000	93.38852	-369.69567	93.38852
11450.00000	92.95753	-371.43376	92.95753
11500.00000	92.64927	-372.16687	92.64927
11550.00000	92.13094	-372.64431	92.13094
11600.00000	91.88197	-373.98067	91.88197
11650.00000	91.41479	-373.21010	91.41479
11700.00000	91.05868	-373.45207	91.05868
11750.00000	90.68163	-374.20965	90.68163
11800.00000	90.32996	-373.89609	90.32996
11850.00000	90.04987	-372.37796	90.04987
11900.00000	89.54309	-372.20387	89.54309
11950.00000	89.37375	-371.00299	89.37375
12000.00000	89.04535	-369.79374	89.04535
12050.00000	88.85025	-368.50122	88.85025
12100.00000	88.75187	-368.77344	88.75187
12150.00000	88.65752	-368.30574	88.65752
12200.00000	88.57042	-368.73861	88.57042
12250.00000	88.48027	-367.10816	88.48027
12300.00000	89.65853	-367.07886	89.65853
12350.00000	88.52696	-366.28836	88.52696
12400.00000	88.50433	-364.71530	88.50433
12450.00000	88.48176	-364.14839	88.48176
12500.00000	88.39211	-363.83400	88.39211
12550.00000	88.44141	-364.33989	88.44141
12600.00000	88.36292	-364.71658	88.36292
12650.00000	88.53500	-365.09116	88.53500
12700.00000	88.61345	-365.62713	88.61345
12750.00000	88.61682	-366.72077	88.61682
12800.00000	88.68946	-366.71213	88.68946
12850.00000	88.44626	-366.67436	88.44626
12900.00000	88.51782	-367.76222	88.51782
12950.00000	88.50734	-368.22970	88.50734
13000.00000	88.43870	-369.73486	88.43870
13050.00000	88.48630	-369.50903	88.48630
13100.00000	88.41228	-370.65074	88.41228
13150.00000	88.46562	-371.58586	88.46562
13200.00000	88.48128	-371.23288	88.48128
13250.00000	88.43202	-371.93246	88.43202
13300.00000	88.35162	-370.20205	88.35162
13350.00000	88.31931	-370.78564	88.31931
13400.00000	88.44087	-371.69498	88.44087
13450.00000	88.21886	-371.03380	88.21886
13500.00000	88.47110	-370.97412	88.47110
13550.00000	88.27909	-371.60416	88.27909
13600.00000	88.34451	-370.95808	88.34451
13650.00000	88.43133	-371.19391	88.43133
13700.00000	88.27824	-371.88631	88.27824
13750.00000	88.29951	-371.36019	88.29951
13800.00000	88.19295	-374.20638	88.19295
13850.00000	88.25285	-374.86310	88.25285
13900.00000	88.31305	-374.36043	88.31305
13950.00000	88.50277	-374.50744	88.50277
14000.00000	88.77645	-372.70705	88.77645
14050.00000	88.81648	-373.44218	88.81648
14100.00000	88.76273	-373.12458	88.76273
14150.00000	88.88816	-374.17716	88.88816
14200.00000	89.11030	-373.65080	89.11030
14250.00000	89.57788	-372.34837	89.57788
14300.00000	89.64894	-372.78741	89.64894
14350.00000	89.78662	-371.29034	89.78662
14400.00000	89.54965	-372.07405	89.54965
14450.00000	89.58104	-371.06590	89.58104
14500.00000	89.60770	-372.82506	89.60770
14550.00000	89.84501	-373.01678	89.84501
14600.00000	90.00314	-374.21237	90.00314
14650.00000	90.37449	-372.03748	90.37449
14700.00000	90.31254	-375.80850	90.31254
14750.00000	90.75887	-375.38389	90.75887
14800.00000	90.88552	-374.07983	90.88552
14850.00000	91.16659	-373.96974	91.16659
14900.00000	91.50490	-374.38180	91.50490
14950.00000	91.71396	-374.60928	91.71396
15000.00000	92.07251	-374.29653	92.07251
15050.00000	92.25585	-373.46064	92.25585
15100.00000	92.58215	-373.07484	92.58215
15150.00000	93.04104	-373.77743	93.04104
15200.00000	93.19231	-372.97632	93.19231
15250.00000	93.42949	-374.03663	93.42949
15300.00000	94.06538	-375.43769	94.06538
15350.00000	94.43098	-376.95695	94.43098
15400.00000	94.74630	-376.15248	94.74630
15450.00000	95.14852	-377.48082	95.14852
15500.00000	95.68184	-379.04899	95.68184
15550.00000	96.20371	-380.38250	96.20371
15600.00000	96.59488	-382.07862	96.59488
15650.00000	97.14767	-382.46867	97.14767
15700.00000	97.47268	-386.03877	97.47268
15750.00000	98.11073	-387.92128	98.11073
15800.00000	98.50592	-389.52776	98.50592
15850.00000	98.93647	-392.20854	98.93647
15900.00000	99.16158	-395.39673	99.16158
15950.00000	99.62623	-398.76099	99.62623
16000.00000	100.02862	-401.67854	100.02862
16050.00000	100.40473	-404.67781	100.40473
16100.00000	100.48816	-408.42347	100.48816
16150.00000	100.71382	-411.47153	100.71382
16200.00000	100.94441	-415.40461	100.94441
16250.00000	101.17010	-418.11662	101.17010
16300.00000	101.47746	-421.34109	101.47746
16350.00000	101.59472	-424.29471	101.59472
16400.00000	101.71632	-426.81489	101.71632
16450.00000	101.86611	-429.46291	101.86611
16500.00000	101.99439	-431.82990	101.99439
16550.00000	102.17878	-435.57590	102.17878
16600.00000	102.39781	-438.02910	102.39781
16650.00000	102.51163	-440.66012	102.51163
16700.00000	102.69411	-443.20679	102.69411
16750.00000	102.72928	-446.17544	102.72928
16800.00000	102.91441	-449.10331	102.91441
16850.00000	103.12069	-451.85019	103.12069
16900.00000	103.34628	-454.94180	103.34628
16950.00000	103.45422	-457.38074	103.45422
17000.00000	103.48435	-460.54080	103.48435
17050.00000	103.68339	-462.63169	103.68339
17100.00000	103.72538	-464.28622	103.72538
17150.00000	103.96640	-468.17111	103.96640
17200.00000	104.12114	-470.85860	104.12114
17250.00000	104.16569	-474.12225	104.16569
17300.00000	104.37502	-476.82855	104.37502
17350.00000	104.33825	-479.23554	104.33825
17400.00000	104.54695	-482.23626	104.54695
17450.00000	104.58678	-485.56762	104.58678
17500.00000	104.73101	-488.17246	104.73101
17550.00000	104.84197	-491.02482	104.84197
17600.00000	105.04226	-493.57635	105.04226
17650.00000	105.08813	-497.12859	105.08813
17700.00000	105.16850	-499.74811	105.16850
17750.00000	105.37300	-502.55774	105.37300
17800.00000	105.36990	-505.88379	105.36990
17850.00000	105.47595	-508.60245	105.47595
17900.00000	105.57555	-511.58920	105.57555
17950.00000	105.68778	-514.90088	105.68778
18000.00000	105.78387	-518.44791	105.78387
18050.00000	105.98159	-520.92240	105.98159
18100.00000	105.99002	-524.61252	105.99002
18150.00000	106.03887	-527.22582	106.03887
18200.00000	106.03716	-530.88346	106.03716
18250.00000	106.18082	-533.24216	106.18082
18300.00000	106.25567	-536.32770	106.25567
18350.00000	106.33311	-539.48384	106.33311
18400.00000	106.33420	-542.89709	106.33420
18450.00000	106.33302	-547.16302	106.33302
18500.00000	106.39356	-550.27341	106.39356
18550.00000	106.41116	-552.89916	106.41116
18600.00000	106.52550	-556.56054	106.52550
18650.00000	106.42407	-559.56559	106.42407
18700.00000	106.41284	-563.26736	106.41284
18750.00000	106.48512	-566.32464	106.48512
18800.00000	106.58498	-568.84601	106.58498
18850.00000	106.43521	-572.42560	106.43521
18900.00000	106.46963	-575.55793	106.46963
18950.00000	106.44258	-579.16566	106.44258
19000.00000	106.26978	-581.77468	106.26978
19050.00000	106.37431	-585.04287	106.37431
19100.00000	106.30175	-587.88243	106.30175
19150.00000	106.39282	-590.87630	106.39282
19200.00000	106.36484	-593.69635	106.36484
19250.00000	106.29958	-597.67461	106.29958
19300.00000	106.19886	-600.04833	106.19886
19350.00000	106.15841	-603.16675	106.15841
19400.00000	106.08710	-606.09853	106.08710
19450.00000	106.16060	-608.45051	106.16060
19500.00000	105.98926	-612.16035	105.98926
19550.00000	105.99354	-615.07750	105.99354
19600.00000	106.01535	-618.65099	106.01535
19650.00000	105.89638	-621.13642	105.89638
19700.00000	105.76798	-624.17318	105.76798
19750.00000	105.69565	-626.67600	105.69565
19800.00000	105.72530	-630.43155	105.72530
19850.00000	105.67760	-633.02958	105.67760
19900.00000	105.54847	-636.77146	105.54847
19950.00000	105.44824	-639.59555	105.44824
20000.00000	105.36289	-642.70997	105.36289
20050.00000	105.30017	-645.66645	105.30017
20100.00000	105.11214	-648.54508	105.11214
20150.00000	105.06536	-650.91287	105.06536
20200.00000	104.91907	-654.43150	104.91907
20250.00000	104.72827	-657.29291	104.72827
20300.00000	104.52198	-660.12117	104.52198
20350.00000	104.43447	-663.05555	104.43447
20400.00000	104.22830	-665.12342	104.22830
20450.00000	103.97577	-667.84609	103.97577
20500.00000	103.85531	-670.73835	103.85531
20550.00000	103.43352	-672.48465	103.43352
20600.00000	103.31722	-674.45971	103.31722
20650.00000	103.12234	-676.69336	103.12234
20700.00000	102.88288	-678.51586	102.88288
20750.00000	102.72017	-680.24071	102.72017
20800.00000	102.47463	-681.46450	102.47463
20850.00000	102.34364	-683.19261	102.34364
20900.00000	102.11157	-684.38126	102.11157
20950.00000	101.93183	-685.06230	101.93183
21000.00000	101.81116	-685.93178	101.81116
21050.00000	101.82776	-686.50313	101.82776
21100.00000	101.71632	-687.13537	101.71632
21150.00000	101.76200	-688.20419	101.76200
21200.00000	101.79938	-688.69074	101.79938
21250.00000	101.82018	-690.89459	101.82018
21300.00000	101.92216	-691.51729	101.92216
21350.00000	101.96167	-692.73208	101.96167
21400.00000	102.00430	-694.66765	102.00430
21450.00000	102.08659	-696.42155	102.08659
21500.00000	102.14578	-698.48364	102.14578
21550.00000	102.13051	-700.14354	102.13051
21600.00000	102.24245	-702.41983	102.24245
21650.00000	102.23056	-704.60968	102.23056
21700.00000	102.22995	-706.34196	102.22995
21750.00000	102.24285	-708.75390	102.24285
21800.00000	102.22106	-710.80521	102.22106
21850.00000	102.14360	-712.78315	102.14360
21900.00000	102.15742	-714.87568	102.15742
21950.00000	102.11582	-716.76335	102.11582
22000.00000	102.14991	-718.70216	102.14991
22050.00000	102.08735	-720.11185	102.08735
22100.00000	102.04271	-722.48884	102.04271
22150.00000	102.00531	-724.03379	102.00531
22200.00000	102.05645	-726.07163	102.05645
22250.00000	101.97465	-727.27285	101.97465
22300.00000	101.83815	-729.50330	101.83815
22350.00000	101.97123	-731.49136	101.97123
22400.00000	101.97415	-733.30862	101.97415
22450.00000	101.88469	-735.09701	101.88469
22500.00000	101.86164	-736.08958	101.86164
22550.00000	101.86835	-738.66387	101.86835
22600.00000	101.82917	-740.72011	101.82917
22650.00000	101.81066	-742.90691	101.81066
22700.00000	101.78040	-744.35423	101.78040
22750.00000	101.75773	-745.01946	101.75773
22800.00000	101.76410	-748.60055	101.76410
22850.00000	101.80667	-751.66975	101.80667
22900.00000	101.79332	-751.86462	101.79332
22950.00000	101.76235	-753.98238	101.76235
23000.00000	101.77450	-755.33930	101.77450
23050.00000	101.60796	-758.20954	101.60796
23100.00000	101.84951	-759.33302	101.84951
23150.00000	101.54815	-760.65904	101.54815
23200.00000	101.68670	-763.98219	101.68670
23250.00000	101.48924	-766.43456	101.48924
23300.00000	101.74627	-768.91930	101.74627
23350.00000	101.37550	-770.77269	101.37550
23400.00000	101.36225	-773.34712	101.36225
23450.00000	101.46852	-775.57072	101.46852
23500.00000	101.27161	-776.65865	101.27161
23550.00000	101.21067	-777.07807	101.21067
23600.00000	101.01778	-781.27294	101.01778
23650.00000	101.01650	-782.38033	101.01650
23700.00000	101.19289	-786.60362	101.19289
23750.00000	101.02550	-788.15846	101.02550
23800.00000	100.60615	-788.41429	100.60615
23850.00000	100.68496	-789.81866	100.68496
23900.00000	100.95959	-791.97106	100.95959
23950.00000	100.54293	-794.87924	100.54293
24000.00000	100.38645	-797.95948	100.38645
24050.00000	100.36146	-797.87574	100.36146
24100.00000	100.44304	-800.97718	100.44304
24150.00000	100.36821	-802.16022	100.36821
24200.00000	100.24578	-804.94948	100.24578
24250.00000	99.84218	-805.36961	99.84218
24300.00000	99.97540	-808.36339	99.97540
24350.00000	99.81646	-808.35616	99.81646
24400.00000	99.68465	-810.68940	99.68465
24450.00000	99.42586	-811.35775	99.42586
24500.00000	99.76429	-811.07898	99.76429
24550.00000	99.68092	-815.08963	99.68092
24600.00000	100.05313	-814.76874	100.05313
24650.00000	99.75178	-817.55254	99.75178
24700.00000	99.60836	-457.07032	99.60836
24750.00000	99.81945	-460.20827	99.81945
24800.00000	99.76618	-101.78454	99.76618
24850.00000	99.51397	258.44546	99.51397
24900.00000	99.76493	618.58624	99.76493
24950.00000	100.21332	976.17746	100.21332
25000.00000	100.21824	968.63405	100.21824
25050.00000	100.57135	970.11174	100.57135
25100.00000	99.94277	967.33459	99.94277
25150.00000	100.42035	966.37050	100.42035
25200.00000	100.28116	962.60533	100.28116
25250.00000	100.50307	962.60110	100.50307
25300.00000	100.62899	962.07419	100.62899
25350.00000	100.72552	955.40945	100.72552
25400.00000	100.70868	951.59688	100.70868
25450.00000	101.02815	950.80158	101.02815
25500.00000	100.90589	949.19833	100.90589
25550.00000	100.97767	945.36367	100.97767
25600.00000	101.07377	942.76752	101.07377
25650.00000	101.14604	941.35649	101.14604
25700.00000	101.19279	938.12787	101.19279
25750.00000	101.07829	935.84360	101.07829
25800.00000	101.08321	931.90911	101.08321
25850.00000	101.22215	929.93272	101.22215
25900.00000	101.14544	925.53575	101.14544
25950.00000	100.94306	927.36377	100.94306
26000.00000	101.07324	921.64176	101.07324
26050.00000	101.02842	919.11648	101.02842
26100.00000	100.93667	916.58464	100.93667
26150.00000	100.97399	914.29655	100.97399
26200.00000	101.08684	912.39781	101.08684
26250.00000	100.89647	909.86146	100.89647
26300.00000	100.99880	906.11882	100.99880
26350.00000	100.60600	905.58588	100.60600
26400.00000	100.72543	903.04974	100.72543
26450.00000	100.94560	899.48689	100.94560
26500.00000	100.74247	897.26932	100.74247
26550.00000	100.58900	892.11354	100.58900
26600.00000	100.61363	890.52204	100.61363
26650.00000	100.70878	890.52520	100.70878
26700.00000	100.61326	888.24049	100.61326
26750.00000	100.39501	885.25506	100.39501
26800.00000	100.44355	880.57324	100.44355
26850.00000	100.72344	880.62603	100.72344
26900.00000	100.60362	878.78409	100.60362
26950.00000	100.84936	874.95319	100.84936
27000.00000	100.37305	873.98729	100.37305
27050.00000	100.74423	871.41795	100.74423
27100.00000	100.38063	870.24212	100.38063
27150.00000	100.41975	866.75842	100.41975
27200.00000	100.68216	864.77815	100.68216
27250.00000	100.29746	863.93099	100.29746
27300.00000	100.12359	860.04057	100.12359
27350.00000	100.25819	860.03795	100.25819
27400.00000	100.00012	857.05729	100.00012
27450.00000	99.99075	855.60726	99.99075
27500.00000	100.03203	853.63246	100.03203
27550.00000	100.16717	850.93199	100.16717
27600.00000	100.41685	848.20986	100.41685
27650.00000	100.06024	847.87572	100.06024
27700.00000	100.13097	842.57917	100.13097
27750.00000	100.09762	839.36369	100.09762
27800.00000	100.29848	836.74216	100.29848
27850.00000	100.58427	838.01095	100.58427
27900.00000	99.96542	833.99793	99.96542
27950.00000	99.60452	832.28361	99.60452
28000.00000	99.71283	830.72360	99.71283
28050.00000	100.24044	828.17525	100.24044
28100.00000	99.56353	824.93518	99.56353
28150.00000	99.61535	824.33494	99.61535
28200.00000	99.84612	819.22049	99.84612
28250.00000	99.47387	816.17389	99.47387
28300.00000	99.09545	815.22518	99.09545
28350.00000	99.43481	813.73024	99.43481
28400.00000	99.02620	813.77331	99.02620
28450.00000	99.59398	809.75937	99.59398
28500.00000	99.01199	807.85961	99.01199
28550.00000	99.01515	809.06671	99.01515
28600.00000	98.91218	805.95078	98.91218
28650.00000	98.91631	801.11353	98.91631
28700.00000	98.87765	802.16379	98.87765
28750.00000	99.29148	801.25654	99.29148
28800.00000	99.00770	798.90764	99.00770
28850.00000	98.23936	794.83975	98.23936
28900.00000	98.44616	794.41079	98.44616
28950.00000	98.13513	793.59142	98.13513
29000.00000	98.33709	791.21451	98.33709
29050.00000	97.95659	790.48335	97.95659
29100.00000	97.67682	790.33499	97.67682
29150.00000	97.51072	789.76026	97.51072
29200.00000	97.40071	786.63649	97.40071
29250.00000	97.74293	786.13305	97.74293
29300.00000	97.30424	784.08132	97.30424
29350.00000	97.60891	783.31259	97.60891
29400.00000	97.39938	782.69806	97.39938
29450.00000	97.13446	781.47505	97.13446
29500.00000	97.55809	781.91537	97.55809
29550.00000	97.24438	776.65350	97.24438
29600.00000	96.89681	778.83723	96.89681
29650.00000	97.08006	777.00195	97.08006
29700.00000	97.05911	777.52971	97.05911
29750.00000	96.99526	778.00619	96.99526
29800.00000	96.74500	775.81270	96.74500
29850.00000	96.73665	773.37572	96.73665
29900.00000	96.98338	775.03205	96.98338
29950.00000	96.22924	773.33852	96.22924
30000.00000	96.62127	775.25371	96.62127
30050.00000	96.72656	772.49229	96.72656
30100.00000	96.39520	774.65071	96.39520
30150.00000	96.56098	771.17487	96.56098
30200.00000	96.72686	769.65613	96.72686
30250.00000	96.57056	770.89597	96.57056
30300.00000	96.22387	771.11737	96.22387
30350.00000	96.50928	772.26636	96.50928
30400.00000	96.56743	770.65523	96.56743
30450.00000	96.20927	770.10124	96.20927
30500.00000	96.37854	769.90343	96.37854
30550.00000	96.43570	771.30971	96.43570
30600.00000	96.54835	771.34027	96.54835
30650.00000	96.57722	772.47172	96.57722
30700.00000	96.83001	770.72201	96.83001
30750.00000	96.75573	772.95880	96.75573
30800.00000	97.05522	772.72983	97.05522
30850.00000	97.35506	774.09193	97.35506
30900.00000	97.29784	776.02299	97.29784
30950.00000	97.85293	774.41537	97.85293
31000.00000	98.18796	773.49970	98.18796
31050.00000	98.66055	774.82801	98.66055
31100.00000	99.26182	774.92964	99.26182
31150.00000	99.27588	774.15864	99.27588
31200.00000	100.17933	772.73197	100.17933
31250.00000	100.49075	772.26506	100.49075
31300.00000	100.96894	770.08232	100.96894
31350.00000	101.59419	768.41159	101.59419
31400.00000	101.85979	765.10657	101.85979
31450.00000	102.35233	763.32652	102.35233
31500.00000	102.74006	760.07243	102.74006
31550.00000	103.17995	757.15828	103.17995
31600.00000	103.77794	753.59715	103.77794
31650.00000	104.10148	750.54987	104.10148
31700.00000	104.39023	747.11526	104.39023
31750.00000	104.84348	745.25136	104.84348
31800.00000	105.17342	740.98400	105.17342
31850.00000	105.43088	736.07475	105.43088
31900.00000	105.57539	733.54465	105.57539
31950.00000	105.95396	729.42300	105.95396
32000.00000	106.23868	725.14840	106.23868
32050.00000	106.33908	722.17768	106.33908
32100.00000	106.59333	717.05042	106.59333
32150.00000	106.80980	713.90572	106.80980
32200.00000	106.99294	709.96097	106.99294
32250.00000	107.10083	705.50582	107.10083
32300.00000	107.15618	702.01926	107.15618
32350.00000	107.27312	699.07183	107.27312
32400.00000	107.49277	695.38629	107.49277
32450.00000	107.46208	691.17992	107.46208
32500.00000	107.69757	688.37457	107.69757
32550.00000	107.80578	683.28674	107.80578
32600.00000	107.85111	680.34344	107.85111
32650.00000	107.98511	676.21301	107.98511
32700.00000	107.88623	672.23751	107.88623
32750.00000	107.96587	668.71969	107.96587
32800.00000	108.15461	665.33894	108.15461
32850.00000	108.20572	661.01960	108.20572
32900.00000	108.12417	656.44419	108.12417
32950.00000	108.07608	652.27778	108.07608
33000.00000	107.96790	649.76129	107.96790
33050.00000	107.89181	645.49758	107.89181
33100.00000	107.98446	641.67656	107.98446
33150.00000	107.95291	638.46677	107.95291
33200.00000	107.92119	636.12236	107.92119
33250.00000	107.69811	632.08589	107.69811
33300.00000	107.60322	628.27475	107.60322
33350.00000	107.37523	624.69052	107.37523
33400.00000	107.34555	622.90776	107.34555
33450.00000	107.23099	618.75374	107.23099
33500.00000	107.10340	617.09850	107.10340
33550.00000	106.79551	612.84927	106.79551
33600.00000	106.84543	609.71309	106.84543
33650.00000	106.52183	607.68940	106.52183
33700.00000	106.51983	606.28348	106.51983
33750.00000	106.19720	602.69863	106.19720
33800.00000	106.03383	600.44866	106.03383
33850.00000	105.59240	598.61567	105.59240
33900.00000	105.75595	596.36194	105.75595
33950.00000	105.50710	594.19472	105.50710
34000.00000	105.42245	592.76375	105.42245
34050.00000	105.09529	591.45111	105.09529
34100.00000	104.79833	589.36120	104.79833
34150.00000	104.74811	587.67487	104.74811
34200.00000	104.68807	588.28198	104.68807
34250.00000	104.63256	585.68514	104.63256
34300.00000	104.37516	584.41373	104.37516
34350.00000	104.21426	583.10496	104.21426
34400.00000	104.15014	585.49501	104.15014
34450.00000	104.17568	581.85596	104.17568
34500.00000	104.25166	582.12617	104.25166
34550.00000	104.23176	580.55094	104.23176
34600.00000	103.93140	577.75310	103.93140
34650.00000	104.28276	580.40564	104.28276
34700.00000	104.01507	580.27938	104.01507
34750.00000	104.21339	574.68860	104.21339
34800.00000	104.36685	577.35709	104.36685
34850.00000	104.59257	579.26474	104.59257
34900.00000	104.71686	574.71413	104.71686
34950.00000	104.46992	574.48199	104.46992
35000.00000	104.68420	573.86951	104.68420
35050.00000	105.01060	573.42305	105.01060
35100.00000	105.26997	570.53739	105.26997
35150.00000	104.93141	572.12637	104.93141
35200.00000	105.14307	568.34646	105.14307
35250.00000	105.42132	567.92683	105.42132
35300.00000	105.61405	565.19128	105.61405
35350.00000	105.96776	563.83480	105.96776
35400.00000	105.83772	561.61703	105.83772
35450.00000	105.90729	561.17117	105.90729
35500.00000	105.86304	559.75137	105.86304
35550.00000	106.26796	558.50265	106.26796
35600.00000	106.17259	555.56658	106.17259
35650.00000	106.29254	553.82801	106.29254
35700.00000	106.55079	553.28662	106.55079
35750.00000	106.53471	551.41254	106.53471
35800.00000	106.68221	550.08793	106.68221
35850.00000	106.85586	547.33242	106.85586
35900.00000	106.95152	544.90554	106.95152
35950.00000	106.96833	542.57705	106.96833
36000.00000	107.04031	541.67304	107.04031
36050.00000	107.17598	539.81247	107.17598
36100.00000	107.28601	537.33044	107.28601
36150.00000	107.10595	535.11161	107.10595
36200.00000	107.06009	533.64079	107.06009
36250.00000	107.05032	531.69821	107.05032
36300.00000	106.90256	529.10200	106.90256
36350.00000	106.93880	528.55395	106.93880
36400.00000	106.98521	526.58145	106.98521
36450.00000	106.82453	525.13282	106.82453
36500.00000	106.95503	523.63111	106.95503
36550.00000	106.73886	520.33005	106.73886
36600.00000	106.71279	520.55709	106.71279
36650.00000	106.92931	520.10468	106.92931
36700.00000	106.92634	516.85221	106.92634
36750.00000	106.78159	515.57680	106.78159
36800.00000	106.73752	515.47778	106.73752
36850.00000	106.75585	514.63585	106.75585
36900.00000	106.87394	511.17880	106.87394
36950.00000	106.50709	510.13573	106.50709
37000.00000	106.15457	510.05295	106.15457
37050.00000	106.29598	510.30675	106.29598
37100.00000	106.51911	508.02318	106.51911
37150.00000	106.39913	506.02418	106.39913
37200.00000	106.78360	506.89701	106.78360
37250.00000	106.49747	504.43920	106.49747
37300.00000	106.72310	504.04612	106.72310
37350.00000	107.08383	502.72838	107.08383
37400.00000	106.92081	502.61057	106.92081
37450.00000	107.08765	501.53331	107.08765
37500.00000	107.44205	497.89965	107.44205
37550.00000	107.25758	497.16257	107.25758
37600.00000	107.59420	495.42104	107.59420
37650.00000	107.72647	494.13175	107.72647
37700.00000	107.88627	491.47308	107.88627
37750.00000	108.08989	490.06332	108.08989
37800.00000	108.29097	487.86928	108.29097
37850.00000	108.55298	484.47693	108.55298
37900.00000	108.80768	482.58850	108.80768
37950.00000	109.07549	481.36650	109.07549
38000.00000	109.27897	479.34130	109.27897
38050.00000	109.70589	476.59295	109.70589
38100.00000	110.18354	473.60906	110.18354
38150.00000	110.33966	469.15991	110.33966
38200.00000	110.83070	465.53763	110.83070
38250.00000	111.13284	462.75328	111.13284
38300.00000	111.62544	458.53381	111.62544
38350.00000	111.89620	454.91150	111.89620
38400.00000	112.22501	450.90711	112.22501
38450.00000	112.64796	446.26823	112.64796
38500.00000	113.14499	441.67397	113.14499
38550.00000	113.55250	437.69251	113.55250
38600.00000	113.98440	432.19330	113.98440
38650.00000	114.31645	426.64892	114.31645
38700.00000	114.66263	421.57138	114.66263
38750.00000	114.95595	415.44094	114.95595
38800.00000	115.29025	410.18186	115.29025
38850.00000	115.55037	404.01525	115.55037
38900.00000	115.78984	398.25051	115.78984
38950.00000	115.98007	392.02465	115.98007
39000.00000	116.22139	386.06567	116.22139
39050.00000	116.45354	379.82266	116.45354
39100.00000	116.47211	373.88966	116.47211
39150.00000	116.51108	367.69354	116.51108
39200.00000	116.60212	361.69148	116.60212
39250.00000	116.63815	355.51555	116.63815
39300.00000	116.63462	349.33863	116.63462
39350.00000	116.56159	344.13304	116.56159
39400.00000	116.51551	337.90923	116.51551
39450.00000	116.35106	332.76357	116.35106
39500.00000	116.28482	327.25729	116.28482
39550.00000	116.09443	321.58867	116.09443
39600.00000	115.86708	316.35407	115.86708
39650.00000	115.69042	311.56851	115.69042
39700.00000	115.43177	307.06971	115.43177
39750.00000	115.29565	301.69580	115.29565
39800.00000	115.07290	297.10714	115.07290
39850.00000	114.72593	292.71616	114.72593
39900.00000	114.49239	288.74427	114.49239
39950.00000	114.19502	285.06334	114.19502
40000.00000	113.80031	281.79607	113.80031
40050.00000	113.61224	277.27266	113.61224
40100.00000	113.32189	273.39917	113.32189
40150.00000	112.98066	269.57181	112.98066
40200.00000	112.65840	266.19224	112.65840
40250.00000	112.31878	263.26489	112.31878
40300.00000	112.09112	260.79380	112.09112
40350.00000	111.61192	257.89276	111.61192
40400.00000	111.21383	254.80392	111.21383
40450.00000	110.90087	252.72212	110.90087
40500.00000	110.65800	250.62570	110.65800
40550.00000	110.31134	248.03800	110.31134
40600.00000	109.94586	246.33242	109.94586
40650.00000	109.54887	245.23207	109.54887
40700.00000	109.16183	243.38318	109.16183
40750.00000	108.99619	242.05995	108.99619
40800.00000	108.58396	240.27575	108.58396
40850.00000	108.19681	239.59384	108.19681
40900.00000	107.95070	237.85409	107.95070
40950.00000	107.41416	238.19659	107.41416
41000.00000	107.01304	237.34697	107.01304
41050.00000	106.79457	236.48521	106.79457
41100.00000	106.66096	236.62742	106.66096
41150.00000	106.41739	237.64092	106.41739
41200.00000	106.19255	235.84126	106.19255
41250.00000	105.81307	235.09355	105.81307
41300.00000	105.38935	236.61608	105.38935
41350.00000	105.20974	237.63712	105.20974
41400.00000	105.09091	233.23275	105.09091
41450.00000	104.93496	237.21374	104.93496
41500.00000	104.48508	236.78667	104.48508
41550.00000	104.12133	240.46635	104.12133
41600.00000	103.84351	239.30549	103.84351
41650.00000	103.92552	238.66037	103.92552
41700.00000	103.78094	239.23285	103.78094
41750.00000	103.13573	246.86925	103.13573
41800.00000	102.36152	242.61885	102.36152
41850.00000	102.02450	245.67903	102.02450
41900.00000	101.77130	245.21560	101.77130
41950.00000	102.52672	250.77266	102.52672
42000.00000	101.34813	245.92701	101.34813
42050.00000	100.04821	248.04358	100.04821
42100.00000	100.87287	250.11884	100.87287
42150.00000	100.01012	246.48624	100.01012
42200.00000	99.23998	253.70821	99.23998
42250.00000	99.16050	255.39635	99.16050
42300.00000	97.82293	254.43662	97.82293
42350.00000	98.33897	253.80996	98.33897
42400.00000	97.41809	258.48041	97.41809
42450.00000	97.64302	259.12727	97.64302
42500.00000	96.97213	259.66222	96.97213
42550.00000	97.10776	267.23040	97.10776
42600.00000	96.27469	263.53310	96.27469
42650.00000	96.34372	264.76954	96.34372
42700.00000	94.86645	264.73470	94.86645
42750.00000	95.38367	267.30911	95.38367
42800.00000	95.27467	260.77664	95.27467
42850.00000	95.57460	259.13506	95.57460
42900.00000	96.05415	269.85776	96.05415
42950.00000	95.24272	257.05482	95.24272
43000.00000	95.33325	248.74580	95.33325
43050.00000	95.90194	242.52865	95.90194
43100.00000	96.37932	245.60205	96.37932
43150.00000	94.11944	240.52389	94.11944
43200.00000	95.39469	235.21462	95.39469
43250.00000	95.98610	226.64529	95.98610
43300.00000	96.13784	220.75438	96.13784
43350.00000	97.65631	217.05320	97.65631
43400.00000	97.49070	210.33573	97.49070
43450.00000	97.86688	200.23688	97.86688
43500.00000	97.89127	194.94665	97.89127
43550.00000	98.37584	185.86930	98.37584
43600.00000	98.74544	180.26849	98.74544
43650.00000	100.13025	166.88276	100.13025
43700.00000	100.36455	167.31229	100.36455
43750.00000	100.14931	164.57471	100.14931
43800.00000	101.33786	154.92940	101.33786
43850.00000	102.24691	147.58629	102.24691
43900.00000	102.55377	144.86515	102.55377
43950.00000	103.14999	139.43019	103.14999
44000.00000	102.55732	132.46508	102.55732
44050.00000	103.37648	124.80097	103.37648
44100.00000	103.94787	116.25753	103.94787
44150.00000	104.10083	116.01894	104.10083
44200.00000	104.48720	111.10635	104.48720
44250.00000	105.27649	103.68976	105.27649
44300.00000	105.35034	96.57721	105.35034
44350.00000	104.51479	89.24842	104.51479
44400.00000	105.44673	86.25436	105.44673
44450.00000	106.05361	82.12392	106.05361
44500.00000	105.71870	79.78156	105.71870
44550.00000	106.75726	70.19062	106.75726
44600.00000	106.22733	69.10503	106.22733
44650.00000	105.79077	59.13001	105.79077
44700.00000	105.97397	58.96971	105.97397
44750.00000	106.00872	57.70221	106.00872
44800.00000	107.14631	49.64394	107.14631
44850.00000	106.51025	43.75693	106.51025
44900.00000	105.97630	40.35878	105.97630
44950.00000	106.45552	36.63696	106.45552
45000.00000	106.08675	25.31252	106.08675
45050.00000	104.76533	30.66033	104.76533
45100.00000	105.54710	23.01790	105.54710
45150.00000	105.63701	12.68129	105.63701
45200.00000	105.26213	16.90143	105.26213
45250.00000	105.18677	 9.71665	105.18677
45300.00000	105.16011	 6.56085	105.16011
45350.00000	104.63594	-0.98539	104.63594
45400.00000	104.81192	-0.94544	104.81192
45450.00000	104.68572	-6.76426	104.68572
45500.00000	103.35351	-13.73723	103.35351
45550.00000	103.35421	-8.93188	103.35421
45600.00000	104.09154	-19.05603	104.09154
45650.00000	102.38755	-23.12002	102.38755
45700.00000	102.73997	-25.15971	102.73997
45750.00000	103.18887	-21.61962	103.18887
45800.00000	102.29069	-30.14757	102.29069
45850.00000	102.39055	-33.02303	102.39055
45900.00000	101.87443	-33.83682	101.87443
45950.00000	101.89992	-32.79492	101.89992
46000.00000	100.30745	-49.45331	100.30745
46050.00000	100.60184	-51.58769	100.60184
46100.00000	98.94001	-44.61363	98.94001
46150.00000	99.23191	-46.22549	99.23191
46200.00000	97.28342	-54.30462	97.28342
46250.00000	98.18886	-55.93038	98.18886
46300.00000	97.64885	-55.31280	97.64885
46350.00000	98.82883	-59.80476	98.82883
46400.00000	96.74006	-64.23150	96.74006
46450.00000	95.45444	-63.10766	95.45444
46500.00000	95.93034	-59.56467	95.93034
46550.00000	95.87456	-54.41871	95.87456
46600.00000	96.62844	-53.46840	96.62844
46650.00000	93.37631	-60.75668	93.37631
46700.00000	93.54933	-53.53199	93.54933
46750.00000	94.09767	-42.09692	94.09767
46800.00000	92.31805	-52.86644	92.31805
46850.00000	93.69593	-398.61914	93.69593
46900.00000	93.81169	-407.32103	93.81169
46950.00000	94.94499	-404.81402	94.94499
47000.00000	94.42205	-401.82967	94.42205
47050.00000	96.03148	-407.53224	96.03148
47100.00000	94.86167	-408.68701	94.86167
47150.00000	95.55752	-408.81463	95.55752
47200.00000	94.08981	-408.10988	94.08981
47250.00000	96.62515	-406.95739	96.62515
47300.00000	95.35024	-417.94609	95.35024
47350.00000	94.52787	-764.62243	94.52787
47400.00000	94.72733	-771.82398	94.72733
47450.00000	96.05275	-768.74834	96.05275
47500.00000	93.95419	-778.56461	93.95419
47550.00000	94.12795	-1129.07231	94.12795
47600.00000	94.36639	-1133.61750	94.36639
47650.00000	95.80576	-1141.27964	95.80576
47700.00000	94.29645	-1141.04158	94.29645
47750.00000	92.81148	-1136.68785	92.81148
47800.00000	93.89850	-1154.89684	93.89850
47850.00000	94.11417	-1506.41415	94.11417
47900.00000	94.34278	-1853.13818	94.34278
47950.00000	93.35554	-1857.80773	93.35554
48000.00000	93.35939	-1850.38106	93.35939
48050.00000	94.88049	-1862.61030	94.88049
48100.00000	93.05005	-1866.70986	93.05005
48150.00000	94.12937	-2218.26070	94.12937
48200.00000	94.07302	-2216.53457	94.07302
48250.00000	93.56754	-2223.63559	93.56754
48300.00000	94.21326	-2223.00402	94.21326
48350.00000	94.34116	-2227.70716	94.34116
48400.00000	95.06142	-2570.87982	95.06142
48450.00000	96.04887	-2576.37922	96.04887
48500.00000	95.17382	-2581.29639	95.17382
48550.00000	93.46931	-2584.45806	93.46931
48600.00000	95.83060	-2938.47764	95.83060
48650.00000	96.35046	-2943.44245	96.35046
48700.00000	96.27893	-2950.84381	96.27893
48750.00000	95.20092	-3302.80184	95.20092
48800.00000	95.58905	-3307.60463	95.58905
48850.00000	96.49716	-3310.80173	96.49716
48900.00000	94.92562	-3670.88833	94.92562
48950.00000	96.60023	-3685.14098	96.60023
49000.00000	96.26945	-3681.23958	96.26945
49050.00000	96.72422	-3688.96476	96.72422
49100.00000	95.77077	-4047.65435	95.77077
49150.00000	97.79594	-4402.52787	97.79594
49200.00000	96.57393	-4417.69377	96.57393
49250.00000	95.93965	-4761.82233	95.93965
49300.00000	97.04264	-4414.85942	97.04264
49350.00000	94.72261	-4402.56500	94.72261
49400.00000	95.94879	-4050.29011	95.94879
49450.00000	94.98067	-3699.59603	94.98067
49500.00000	95.77954	-3342.07168	95.77954
49550.00000	96.21282	-2988.22520	96.21282
49600.00000	95.49057	-2982.79635	95.49057
49650.00000	96.36232	-2978.18176	96.36232
49700.00000	96.86124	-2640.75055	96.86124
49750.00000	97.01017	-2631.80523	97.01017
49800.00000	96.38758	-2629.22755	96.38758
49850.00000	95.88703	-2624.31033	95.88703
49900.00000	95.80511	-2262.46939	95.80511
49950.00000	97.24373	-1926.67690	97.24373
