---ACOUSTIC CALIBRATION---
Filename: C:\Data\AZH DATA\AZH41\RightPrimary.calib
Date: 8/27/2019 2:02:05 PM
Format: 4
Probe Tube Correction File: C:\Data\Probe Tube Calibrations\50_ProbeTube.calib
Experiment VIs: 850
EPL_CFTS.exe V12.0.1 (2012)
DAQmx V9.6

Attenuation (dB): 40.000000
Min Freq (Hz): 50.000000
Max Freq (Hz): 49950.000000
Freq Step (Hz): 50.000000
Sample Rate (Hz): 100000.000000
[Smoothing]
Method=None
MA.Iterations=0
MA.Length=0
Loess.Length=0
Loess.Type=Linear
Loess.Robust=FALSE


Freq(Hz)	Mag(dB)	Phase(deg)	Unsmoothed(dB)

50.00000	101.20768	349.18918	101.20768
100.00000	86.05363	508.37630	86.05363
150.00000	81.32819	480.43657	81.32819
200.00000	86.98315	453.41521	86.98315
250.00000	93.92678	439.07803	93.92678
300.00000	97.56910	413.23241	97.56910
350.00000	88.40730	382.20822	88.40730
400.00000	93.22154	372.57727	93.22154
450.00000	91.82056	348.80543	91.82056
500.00000	93.58938	370.50520	93.58938
550.00000	97.11597	358.29325	97.11597
600.00000	100.48005	352.43912	100.48005
650.00000	101.25338	340.26191	101.25338
700.00000	103.84253	326.70481	103.84253
750.00000	105.08524	308.63296	105.08524
800.00000	106.26667	284.48327	106.26667
850.00000	105.26007	268.91225	105.26007
900.00000	103.49732	253.32883	103.49732
950.00000	101.90299	252.00948	101.90299
1000.00000	100.62877	251.56123	100.62877
1050.00000	98.60623	264.72655	98.60623
1100.00000	99.74015	285.92363	99.74015
1150.00000	102.30781	294.02428	102.30781
1200.00000	105.18156	291.99370	105.18156
1250.00000	106.93307	286.97643	106.93307
1300.00000	108.73326	280.88006	108.73326
1350.00000	110.16194	272.84540	110.16194
1400.00000	111.15956	264.41241	111.15956
1450.00000	112.13584	258.40236	112.13584
1500.00000	112.85241	251.58777	112.85241
1550.00000	114.09168	242.78693	114.09168
1600.00000	115.58723	232.83993	115.58723
1650.00000	116.59650	217.13664	116.59650
1700.00000	115.59736	206.59942	115.59736
1750.00000	115.38896	200.53324	115.38896
1800.00000	115.25643	195.04518	115.25643
1850.00000	115.31468	193.38713	115.31468
1900.00000	116.43504	188.78674	116.43504
1950.00000	117.10746	175.38584	117.10746
2000.00000	116.23132	162.41117	116.23132
2050.00000	114.60567	165.27401	114.60567
2100.00000	116.24724	166.15333	116.24724
2150.00000	117.09214	156.35643	117.09214
2200.00000	117.04744	145.65208	117.04744
2250.00000	116.42050	138.86393	116.42050
2300.00000	116.51349	132.79049	116.51349
2350.00000	116.20847	126.45588	116.20847
2400.00000	115.94072	120.61787	115.94072
2450.00000	115.58294	114.46480	115.58294
2500.00000	115.26020	109.31540	115.26020
2550.00000	114.72948	104.02327	114.72948
2600.00000	114.24989	99.89147	114.24989
2650.00000	113.70859	96.27878	113.70859
2700.00000	113.40996	92.95172	113.40996
2750.00000	112.65949	89.18919	112.65949
2800.00000	112.08621	86.77792	112.08621
2850.00000	111.46506	84.47888	111.46506
2900.00000	110.89691	82.59856	110.89691
2950.00000	110.20316	81.36086	110.20316
3000.00000	109.49799	81.08370	109.49799
3050.00000	108.74713	80.98420	108.74713
3100.00000	108.11807	82.94017	108.11807
3150.00000	107.23662	84.53165	107.23662
3200.00000	106.35174	91.04698	106.35174
3250.00000	105.85387	99.28664	105.85387
3300.00000	105.69794	108.84583	105.69794
3350.00000	106.19040	121.19268	106.19040
3400.00000	107.61284	133.37523	107.61284
3450.00000	109.71103	140.00362	109.71103
3500.00000	111.99293	141.46611	111.99293
3550.00000	113.93849	138.53486	113.93849
3600.00000	115.63494	134.82182	115.63494
3650.00000	117.05663	129.21416	117.05663
3700.00000	118.32255	123.78696	118.32255
3750.00000	119.55994	117.56794	119.55994
3800.00000	120.63197	110.26213	120.63197
3850.00000	121.50388	102.87915	121.50388
3900.00000	122.33954	96.04350	122.33954
3950.00000	123.10079	88.67774	123.10079
4000.00000	123.81485	81.17814	123.81485
4050.00000	124.47734	73.72146	124.47734
4100.00000	125.18187	66.21024	125.18187
4150.00000	126.06432	57.83911	126.06432
4200.00000	126.65692	47.91209	126.65692
4250.00000	127.20378	37.09730	127.20378
4300.00000	127.53200	25.45869	127.53200
4350.00000	127.56594	13.45935	127.56594
4400.00000	127.35940	 2.27344	127.35940
4450.00000	126.99885	-8.09303	126.99885
4500.00000	126.52593	-17.36557	126.52593
4550.00000	126.06203	-26.41624	126.06203
4600.00000	125.50020	-34.63254	125.50020
4650.00000	124.96425	-42.42312	124.96425
4700.00000	124.38115	-50.34034	124.38115
4750.00000	123.67284	-58.33846	123.67284
4800.00000	122.78920	-66.21538	122.78920
4850.00000	121.67913	-73.02217	121.67913
4900.00000	120.39296	-78.00807	120.39296
4950.00000	119.07583	-80.60932	119.07583
5000.00000	117.88623	-81.13601	117.88623
5050.00000	116.87622	-80.69659	116.87622
5100.00000	115.73462	-77.66266	115.73462
5150.00000	115.60618	-71.79248	115.60618
5200.00000	114.98433	-69.22934	114.98433
5250.00000	115.92642	-56.62690	115.92642
5300.00000	118.27258	-62.63921	118.27258
5350.00000	118.54992	-74.83278	118.54992
5400.00000	118.06020	-82.08616	118.06020
5450.00000	117.57623	-86.16700	117.57623
5500.00000	117.20838	-89.23722	117.20838
5550.00000	116.94077	-91.70483	116.94077
5600.00000	116.71946	-94.14099	116.71946
5650.00000	116.55161	-96.46322	116.55161
5700.00000	116.37303	-99.07632	116.37303
5750.00000	116.25932	-101.31831	116.25932
5800.00000	116.12804	-103.75061	116.12804
5850.00000	115.99853	-106.23255	115.99853
5900.00000	115.90934	-108.56058	115.90934
5950.00000	115.82282	-110.86907	115.82282
6000.00000	115.77877	-113.08195	115.77877
6050.00000	115.72946	-115.47774	115.72946
6100.00000	115.73008	-118.01024	115.73008
6150.00000	115.73107	-120.74657	115.73107
6200.00000	115.71870	-123.64727	115.71870
6250.00000	115.70353	-126.76189	115.70353
6300.00000	115.66097	-129.84156	115.66097
6350.00000	115.60305	-133.10914	115.60305
6400.00000	115.53364	-136.16275	115.53364
6450.00000	115.49543	-139.38595	115.49543
6500.00000	115.40294	-142.48870	115.40294
6550.00000	115.33418	-145.59039	115.33418
6600.00000	115.26054	-148.59407	115.26054
6650.00000	115.21483	-151.66193	115.21483
6700.00000	115.16143	-154.97814	115.16143
6750.00000	115.11119	-158.26890	115.11119
6800.00000	115.06633	-161.48374	115.06633
6850.00000	115.00824	-164.86514	115.00824
6900.00000	114.94698	-168.39048	114.94698
6950.00000	114.90726	-171.73087	114.90726
7000.00000	114.85313	-175.38187	114.85313
7050.00000	114.77653	-179.11095	114.77653
7100.00000	114.72419	-183.03074	114.72419
7150.00000	114.63427	-186.95729	114.63427
7200.00000	114.52144	-191.03466	114.52144
7250.00000	114.36861	-195.32122	114.36861
7300.00000	114.24091	-199.60034	114.24091
7350.00000	114.03491	-203.91350	114.03491
7400.00000	113.82765	-208.44249	113.82765
7450.00000	113.56291	-212.83859	113.56291
7500.00000	113.28237	-217.22743	113.28237
7550.00000	112.94670	-221.55273	112.94670
7600.00000	112.56033	-225.78952	112.56033
7650.00000	112.16570	-229.91283	112.16570
7700.00000	111.77547	-233.85393	111.77547
7750.00000	111.28111	-237.68073	111.28111
7800.00000	110.80269	-241.25499	110.80269
7850.00000	110.30154	-244.35454	110.30154
7900.00000	109.82238	-247.23364	109.82238
7950.00000	109.33124	-250.00568	109.33124
8000.00000	108.83328	-252.45821	108.83328
8050.00000	108.35072	-254.74869	108.35072
8100.00000	107.92064	-256.33022	107.92064
8150.00000	107.37486	-257.50458	107.37486
8200.00000	106.89913	-258.44512	106.89913
8250.00000	106.38310	-259.65915	106.38310
8300.00000	105.91588	-260.52832	105.91588
8350.00000	105.43431	-261.09229	105.43431
8400.00000	104.97136	-262.37013	104.97136
8450.00000	104.45373	-263.68989	104.45373
8500.00000	104.00894	-265.10515	104.00894
8550.00000	103.68055	-266.28460	103.68055
8600.00000	103.35778	-267.96614	103.35778
8650.00000	103.12451	-269.18918	103.12451
8700.00000	102.92709	-270.70181	102.92709
8750.00000	102.78238	-270.64391	102.78238
8800.00000	102.70370	-271.39899	102.70370
8850.00000	102.53140	-271.53480	102.53140
8900.00000	102.41367	-270.96589	102.41367
8950.00000	102.20188	-270.76958	102.20188
9000.00000	101.90490	-270.35610	101.90490
9050.00000	101.61203	-270.97846	101.61203
9100.00000	101.23896	-271.35979	101.23896
9150.00000	100.91629	-272.36136	100.91629
9200.00000	100.60583	-274.00610	100.60583
9250.00000	100.31748	-275.88010	100.31748
9300.00000	100.15026	-277.97318	100.15026
9350.00000	100.24384	-280.16414	100.24384
9400.00000	100.20608	-281.38835	100.20608
9450.00000	100.32163	-281.92738	100.32163
9500.00000	100.44109	-281.22195	100.44109
9550.00000	100.59833	-279.89979	100.59833
9600.00000	100.73423	-279.76303	100.73423
9650.00000	100.69146	-279.97876	100.69146
9700.00000	100.52921	-279.66110	100.52921
9750.00000	100.40477	-280.70672	100.40477
9800.00000	100.17486	-281.45037	100.17486
9850.00000	100.06967	-282.77023	100.06967
9900.00000	99.93049	-285.05319	99.93049
9950.00000	99.98376	-287.01702	99.98376
10000.00000	100.15350	-289.26921	100.15350
10050.00000	100.31132	-290.96228	100.31132
10100.00000	100.47248	-292.10707	100.47248
10150.00000	100.51072	-293.72634	100.51072
10200.00000	100.56092	-294.89406	100.56092
10250.00000	100.47734	-296.28655	100.47734
10300.00000	100.47371	-298.07896	100.47371
10350.00000	100.31420	-300.17931	100.31420
10400.00000	100.14534	-303.18162	100.14534
10450.00000	100.12321	-306.55005	100.12321
10500.00000	100.09873	-309.88809	100.09873
10550.00000	100.15499	-313.08428	100.15499
10600.00000	100.16517	-315.59185	100.16517
10650.00000	100.14809	-317.59673	100.14809
10700.00000	100.08361	-320.44689	100.08361
10750.00000	99.98932	-322.58069	99.98932
10800.00000	99.75884	-324.48559	99.75884
10850.00000	99.51627	-327.80942	99.51627
10900.00000	99.26951	-330.27428	99.26951
10950.00000	99.00541	-332.79489	99.00541
11000.00000	98.77037	-335.55693	98.77037
11050.00000	98.40655	-338.06817	98.40655
11100.00000	98.18273	-340.72359	98.18273
11150.00000	97.79702	-342.47583	97.79702
11200.00000	97.53064	-343.86910	97.53064
11250.00000	97.10631	-345.67028	97.10631
11300.00000	96.65020	-347.19105	96.65020
11350.00000	96.23739	-348.10519	96.23739
11400.00000	95.75626	-349.30669	95.75626
11450.00000	95.39995	-350.89042	95.39995
11500.00000	95.16521	-350.97439	95.16521
11550.00000	94.73181	-351.13520	94.73181
11600.00000	94.50392	-352.05939	94.50392
11650.00000	94.19480	-351.01251	94.19480
11700.00000	93.95207	-351.13846	93.95207
11750.00000	93.74359	-350.82307	93.74359
11800.00000	93.52121	-351.12006	93.52121
11850.00000	93.40796	-349.94839	93.40796
11900.00000	93.10690	-349.66354	93.10690
11950.00000	93.02733	-348.58032	93.02733
12000.00000	92.81925	-347.48591	92.81925
12050.00000	92.62594	-346.09477	92.62594
12100.00000	92.53601	-346.35485	92.53601
12150.00000	92.41191	-345.93219	92.41191
12200.00000	92.38217	-346.19284	92.38217
12250.00000	92.42220	-345.91283	92.42220
12300.00000	93.66376	-345.98769	93.66376
12350.00000	92.66705	-345.64609	92.66705
12400.00000	92.80920	-344.33702	92.80920
12450.00000	92.90890	-343.30692	92.90890
12500.00000	92.97526	-342.95436	92.97526
12550.00000	92.96940	-342.40064	92.96940
12600.00000	92.88657	-343.64456	92.88657
12650.00000	93.13695	-344.14151	93.13695
12700.00000	93.16008	-345.24257	93.16008
12750.00000	93.29560	-346.61236	93.29560
12800.00000	93.45702	-346.97888	93.45702
12850.00000	93.35915	-346.89339	93.35915
12900.00000	93.55706	-347.63938	93.55706
12950.00000	93.64176	-348.10378	93.64176
13000.00000	93.66003	-349.36190	93.66003
13050.00000	93.76892	-349.02630	93.76892
13100.00000	93.75063	-350.43815	93.75063
13150.00000	93.87872	-351.87028	93.87872
13200.00000	93.95019	-351.77550	93.95019
13250.00000	94.08526	-352.69545	94.08526
13300.00000	94.14152	-351.21104	94.14152
13350.00000	94.19503	-352.05876	94.19503
13400.00000	94.36188	-353.08369	94.36188
13450.00000	94.23908	-352.39218	94.23908
13500.00000	94.46943	-353.07500	94.46943
13550.00000	94.40631	-353.61864	94.40631
13600.00000	94.61127	-353.44322	94.61127
13650.00000	94.74059	-353.47097	94.74059
13700.00000	94.69327	-353.89539	94.69327
13750.00000	94.80683	-354.02702	94.80683
13800.00000	94.94975	-356.53230	94.94975
13850.00000	95.07026	-357.31183	95.07026
13900.00000	95.23243	-357.41567	95.23243
13950.00000	95.58564	-357.49200	95.58564
14000.00000	96.04849	-356.32339	96.04849
14050.00000	96.30464	-357.01714	96.30464
14100.00000	96.38728	-357.63621	96.38728
14150.00000	96.76768	-358.54220	96.76768
14200.00000	97.10796	-359.52331	97.10796
14250.00000	97.79159	-359.04786	97.79159
14300.00000	98.04145	-360.59682	98.04145
14350.00000	98.32413	-360.22824	98.32413
14400.00000	98.36147	-362.11036	98.36147
14450.00000	98.67005	-362.81737	98.67005
14500.00000	98.94795	-365.20335	98.94795
14550.00000	99.34414	-366.35556	99.34414
14600.00000	99.51718	-369.87311	99.51718
14650.00000	100.06449	-370.25016	100.06449
14700.00000	100.40831	-376.33487	100.40831
14750.00000	100.67393	-378.08066	100.67393
14800.00000	100.85986	-379.45027	100.85986
14850.00000	101.21739	-381.06129	101.21739
14900.00000	101.47091	-383.86462	101.47091
14950.00000	101.68058	-386.95929	101.68058
15000.00000	101.98167	-389.95664	101.98167
15050.00000	102.04385	-391.22606	102.04385
15100.00000	102.28409	-392.83690	102.28409
15150.00000	102.63314	-395.88959	102.63314
15200.00000	102.62983	-396.86582	102.62983
15250.00000	102.59529	-400.39514	102.59529
15300.00000	102.93382	-403.43550	102.93382
15350.00000	103.04086	-406.82029	103.04086
15400.00000	103.15966	-408.19762	103.15966
15450.00000	103.31905	-410.93216	103.31905
15500.00000	103.52670	-413.25642	103.52670
15550.00000	103.63978	-415.86126	103.63978
15600.00000	103.71442	-418.59527	103.71442
15650.00000	103.96368	-419.35519	103.96368
15700.00000	103.91327	-423.30068	103.91327
15750.00000	104.15794	-425.28796	104.15794
15800.00000	104.32275	-426.76575	104.32275
15850.00000	104.42399	-428.84116	104.42399
15900.00000	104.49669	-432.04618	104.49669
15950.00000	104.63427	-433.98609	104.63427
16000.00000	104.73868	-436.25748	104.73868
16050.00000	104.93868	-438.55539	104.93868
16100.00000	104.92662	-441.16698	104.92662
16150.00000	105.02705	-443.35265	105.02705
16200.00000	105.16796	-446.39719	105.16796
16250.00000	105.29473	-448.37421	105.29473
16300.00000	105.55081	-450.93059	105.55081
16350.00000	105.63639	-453.26899	105.63639
16400.00000	105.77808	-455.14427	105.77808
16450.00000	105.87964	-457.47852	105.87964
16500.00000	105.89943	-459.81503	105.89943
16550.00000	106.15827	-462.92206	106.15827
16600.00000	106.29387	-465.21070	106.29387
16650.00000	106.38470	-467.65092	106.38470
16700.00000	106.55694	-469.83843	106.55694
16750.00000	106.58299	-472.74353	106.58299
16800.00000	106.73967	-475.56508	106.73967
16850.00000	106.93613	-478.08760	106.93613
16900.00000	107.07558	-480.75872	107.07558
16950.00000	107.19309	-483.44778	107.19309
17000.00000	107.20225	-486.38528	107.20225
17050.00000	107.36659	-488.35845	107.36659
17100.00000	107.39062	-489.87474	107.39062
17150.00000	107.62806	-493.66943	107.62806
17200.00000	107.73781	-496.25383	107.73781
17250.00000	107.79590	-499.64625	107.79590
17300.00000	107.99501	-502.28969	107.99501
17350.00000	107.96718	-504.82105	107.96718
17400.00000	108.16350	-507.89627	108.16350
17450.00000	108.17887	-511.31848	108.17887
17500.00000	108.32327	-514.27467	108.32327
17550.00000	108.41562	-517.26727	108.41562
17600.00000	108.58201	-519.97418	108.58201
17650.00000	108.63505	-523.92240	108.63505
17700.00000	108.73650	-526.70720	108.73650
17750.00000	108.84821	-529.79498	108.84821
17800.00000	108.80211	-533.67592	108.80211
17850.00000	108.84997	-536.52729	108.84997
17900.00000	108.84784	-539.92222	108.84784
17950.00000	108.97210	-543.50066	108.97210
18000.00000	108.93545	-547.17642	108.93545
18050.00000	109.06865	-550.12233	109.06865
18100.00000	108.99017	-554.00805	108.99017
18150.00000	108.96109	-556.77113	108.96109
18200.00000	108.87962	-560.63707	108.87962
18250.00000	108.90429	-563.19888	108.90429
18300.00000	108.92536	-566.21924	108.92536
18350.00000	108.87490	-569.70307	108.87490
18400.00000	108.75758	-573.17660	108.75758
18450.00000	108.64604	-577.61575	108.64604
18500.00000	108.58656	-580.46780	108.58656
18550.00000	108.49755	-583.13163	108.49755
18600.00000	108.49188	-586.71995	108.49188
18650.00000	108.27253	-589.45770	108.27253
18700.00000	108.15841	-592.87126	108.15841
18750.00000	108.10442	-595.68633	108.10442
18800.00000	108.10192	-598.12554	108.10192
18850.00000	107.87354	-601.12576	107.87354
18900.00000	107.65539	-603.53869	107.65539
18950.00000	107.65695	-607.06391	107.65695
19000.00000	107.41530	-609.18400	107.41530
19050.00000	107.44231	-611.94554	107.44231
19100.00000	107.27709	-614.44175	107.27709
19150.00000	107.30066	-616.74585	107.30066
19200.00000	107.17891	-618.80737	107.17891
19250.00000	107.08168	-622.54244	107.08168
19300.00000	106.93216	-624.28241	106.93216
19350.00000	106.86554	-626.85751	106.86554
19400.00000	106.74637	-629.03010	106.74637
19450.00000	106.75259	-631.04737	106.75259
19500.00000	106.62531	-634.88715	106.62531
19550.00000	106.54837	-636.70952	106.54837
19600.00000	106.55119	-639.72165	106.55119
19650.00000	106.42023	-641.72956	106.42023
19700.00000	106.26239	-644.55520	106.26239
19750.00000	106.18373	-646.35406	106.18373
19800.00000	106.18248	-649.87490	106.18248
19850.00000	106.12826	-652.00771	106.12826
19900.00000	105.99027	-655.24965	105.99027
19950.00000	105.88862	-657.77175	105.88862
20000.00000	105.80846	-660.44153	105.80846
20050.00000	105.73474	-662.97197	105.73474
20100.00000	105.52072	-665.56745	105.52072
20150.00000	105.50286	-667.51132	105.50286
20200.00000	105.34334	-671.03386	105.34334
20250.00000	105.17448	-673.46782	105.17448
20300.00000	104.97058	-676.15463	104.97058
20350.00000	104.91065	-678.96081	104.91065
20400.00000	104.68793	-680.82321	104.68793
20450.00000	104.46008	-683.47708	104.46008
20500.00000	104.34007	-686.18102	104.34007
20550.00000	103.92865	-687.89639	103.92865
20600.00000	103.82421	-689.80223	103.82421
20650.00000	103.59764	-692.11605	103.59764
20700.00000	103.37389	-693.95333	103.37389
20750.00000	103.14617	-695.86922	103.14617
20800.00000	102.88712	-697.18612	102.88712
20850.00000	102.70300	-698.82739	102.70300
20900.00000	102.41834	-700.19427	102.41834
20950.00000	102.17562	-700.95454	102.17562
21000.00000	101.96872	-701.82901	101.96872
21050.00000	101.91484	-702.21225	101.91484
21100.00000	101.72085	-702.58901	101.72085
21150.00000	101.66274	-703.42558	101.66274
21200.00000	101.62399	-703.62741	101.62399
21250.00000	101.55799	-705.41619	101.55799
21300.00000	101.62175	-705.53370	101.62175
21350.00000	101.55817	-706.03663	101.55817
21400.00000	101.54551	-707.40268	101.54551
21450.00000	101.57518	-708.35397	101.57518
21500.00000	101.65447	-709.92516	101.65447
21550.00000	101.54629	-710.69141	101.54629
21600.00000	101.65829	-712.39076	101.65829
21650.00000	101.65316	-714.25326	101.65316
21700.00000	101.65479	-715.37977	101.65479
21750.00000	101.69131	-716.90917	101.69131
21800.00000	101.66252	-718.41124	101.66252
21850.00000	101.64292	-719.97376	101.64292
21900.00000	101.71237	-722.04624	101.71237
21950.00000	101.65724	-722.99792	101.65724
22000.00000	101.67666	-724.29946	101.67666
22050.00000	101.62695	-725.82223	101.62695
22100.00000	101.59457	-727.27258	101.59457
22150.00000	101.59887	-728.82019	101.59887
22200.00000	101.68971	-730.48217	101.68971
22250.00000	101.62991	-731.29599	101.62991
22300.00000	101.52117	-732.95473	101.52117
22350.00000	101.64984	-734.91093	101.64984
22400.00000	101.71526	-736.19035	101.71526
22450.00000	101.59170	-737.82821	101.59170
22500.00000	101.67711	-738.71937	101.67711
22550.00000	101.58471	-740.52932	101.58471
22600.00000	101.62587	-743.03014	101.62587
22650.00000	101.63534	-744.05213	101.63534
22700.00000	101.65518	-745.83753	101.65518
22750.00000	101.61183	-745.86812	101.61183
22800.00000	101.70731	-750.01175	101.70731
22850.00000	101.70940	-752.21225	101.70940
22900.00000	101.77459	-752.37364	101.77459
22950.00000	101.75067	-753.78664	101.75067
23000.00000	101.68438	-755.41764	101.68438
23050.00000	101.68752	-757.99371	101.68752
23100.00000	101.90124	-758.32629	101.90124
23150.00000	101.68551	-759.94991	101.68551
23200.00000	101.79876	-762.90213	101.79876
23250.00000	101.59660	-765.63290	101.59660
23300.00000	101.79907	-767.60998	101.79907
23350.00000	101.51918	-769.10017	101.51918
23400.00000	101.49963	-771.81606	101.49963
23450.00000	101.56985	-773.20420	101.56985
23500.00000	101.32338	-774.56557	101.32338
23550.00000	101.26812	-774.84968	101.26812
23600.00000	101.21896	-778.08485	101.21896
23650.00000	101.14414	-779.33836	101.14414
23700.00000	101.16939	-782.94074	101.16939
23750.00000	101.07412	-783.42506	101.07412
23800.00000	100.85566	-783.60790	100.85566
23850.00000	100.88664	-784.22653	100.88664
23900.00000	101.24397	-786.09142	101.24397
23950.00000	100.90073	-788.83456	100.90073
24000.00000	100.70409	-790.66987	100.70409
24050.00000	100.81336	-790.44651	100.81336
24100.00000	101.08807	-793.44884	101.08807
24150.00000	100.92237	-793.70107	100.92237
24200.00000	101.01005	-796.84613	101.01005
24250.00000	100.65315	-795.96388	100.65315
24300.00000	101.20924	-798.01265	101.20924
24350.00000	100.89789	-799.39473	100.89789
24400.00000	100.95544	-801.79853	100.95544
24450.00000	100.65846	-802.48212	100.65846
24500.00000	101.20830	-803.21749	101.20830
24550.00000	101.05118	-807.87236	101.05118
24600.00000	101.64699	-806.55208	101.64699
24650.00000	101.33163	-451.98649	101.33163
24700.00000	101.38782	-451.07618	101.38782
24750.00000	101.35461	-95.35185	101.35461
24800.00000	101.43334	263.43095	101.43334
24850.00000	101.20822	622.81791	101.20822
24900.00000	101.05688	982.78774	101.05688
24950.00000	101.67654	1337.81910	101.67654
25000.00000	101.76626	1331.12071	101.76626
25050.00000	102.10028	1335.08836	102.10028
25100.00000	101.42050	1328.84212	101.42050
25150.00000	101.67906	1327.81124	101.67906
25200.00000	101.77152	1325.40082	101.77152
25250.00000	101.95729	1323.78144	101.95729
25300.00000	102.08451	1321.57897	102.08451
25350.00000	102.06340	1315.33821	102.06340
25400.00000	101.99475	1312.14675	101.99475
25450.00000	102.17101	1310.44384	102.17101
25500.00000	102.01402	1309.29093	102.01402
25550.00000	102.07051	1304.61399	102.07051
25600.00000	102.19289	1302.62468	102.19289
25650.00000	102.05678	1301.20250	102.05678
25700.00000	102.09470	1297.87569	102.09470
25750.00000	101.85728	1294.71629	101.85728
25800.00000	101.71895	1291.34630	101.71895
25850.00000	101.70499	1289.07069	101.70499
25900.00000	101.68335	1285.34725	101.68335
25950.00000	101.43795	1286.66404	101.43795
26000.00000	101.48254	1282.24207	101.48254
26050.00000	101.48900	1279.65455	101.48900
26100.00000	101.28404	1278.27048	101.28404
26150.00000	101.23211	1275.36427	101.23211
26200.00000	101.33920	1273.19509	101.33920
26250.00000	101.12504	1270.39766	101.12504
26300.00000	101.11378	1268.10510	101.11378
26350.00000	100.75076	1267.21217	100.75076
26400.00000	100.69796	1264.62115	100.69796
26450.00000	101.02596	1261.90770	101.02596
26500.00000	100.66816	1260.14014	100.66816
26550.00000	100.60811	1255.10978	100.60811
26600.00000	100.37973	1253.80028	100.37973
26650.00000	100.51305	1255.19000	100.51305
26700.00000	100.50601	1249.41262	100.50601
26750.00000	100.25708	1250.61718	100.25708
26800.00000	100.15986	1245.39023	100.15986
26850.00000	100.36738	1246.19197	100.36738
26900.00000	100.40148	1244.50693	100.40148
26950.00000	100.43842	1241.45420	100.43842
27000.00000	100.00389	1242.00805	100.00389
27050.00000	100.18721	1238.51158	100.18721
27100.00000	99.97249	1238.26348	99.97249
27150.00000	99.99363	1234.50131	99.99363
27200.00000	100.03294	1234.00845	100.03294
27250.00000	99.63950	1233.24579	99.63950
27300.00000	99.21437	1232.36468	99.21437
27350.00000	99.80036	1230.75964	99.80036
27400.00000	99.50794	1228.22204	99.50794
27450.00000	99.39164	1227.88619	99.39164
27500.00000	99.39565	1226.40677	99.39565
27550.00000	99.53888	1225.22018	99.53888
27600.00000	99.95159	1221.86479	99.95159
27650.00000	99.35652	1223.30110	99.35652
27700.00000	99.48668	1218.60370	99.48668
27750.00000	99.48191	1216.69588	99.48191
27800.00000	99.73226	1214.53075	99.73226
27850.00000	99.90494	1216.96213	99.90494
27900.00000	99.37433	1214.53804	99.37433
27950.00000	99.18499	1212.92809	99.18499
28000.00000	99.30284	1212.88951	99.30284
28050.00000	100.07251	1210.92920	100.07251
28100.00000	99.40195	1208.84083	99.40195
28150.00000	99.61095	1208.96115	99.61095
28200.00000	99.96170	1204.55474	99.96170
28250.00000	99.80346	1202.37720	99.80346
28300.00000	99.47372	1203.65319	99.47372
28350.00000	99.79953	1203.07919	99.79953
28400.00000	99.81894	1202.65361	99.81894
28450.00000	100.43675	1199.84475	100.43675
28500.00000	100.17465	1198.23226	100.17465
28550.00000	100.26382	1200.33227	100.26382
28600.00000	100.34308	1198.35440	100.34308
28650.00000	100.70829	1194.24505	100.70829
28700.00000	100.81126	1194.67538	100.81126
28750.00000	101.46854	1194.09074	101.46854
28800.00000	101.34754	1192.80892	101.34754
28850.00000	101.00645	1187.90522	101.00645
28900.00000	101.25778	1187.11359	101.25778
28950.00000	101.32569	1187.11059	101.32569
29000.00000	101.71820	1183.94329	101.71820
29050.00000	101.52603	1184.09778	101.52603
29100.00000	101.89711	1180.50574	101.89711
29150.00000	101.65672	1181.60491	101.65672
29200.00000	101.75101	1177.69000	101.75101
29250.00000	102.18676	1175.71677	102.18676
29300.00000	102.03759	1173.16069	102.03759
29350.00000	102.58041	1169.99593	102.58041
29400.00000	102.33931	1168.26069	102.33931
29450.00000	102.52826	1166.63422	102.52826
29500.00000	102.85575	1164.98320	102.85575
29550.00000	102.60262	1160.16117	102.60262
29600.00000	102.54618	1159.40550	102.54618
29650.00000	102.61735	1156.55654	102.61735
29700.00000	102.51904	1157.16679	102.51904
29750.00000	102.51268	1154.69084	102.51268
29800.00000	102.27835	1151.49070	102.27835
29850.00000	102.35428	1148.91455	102.35428
29900.00000	102.48842	1148.68074	102.48842
29950.00000	101.70251	1147.26368	101.70251
30000.00000	102.13203	1146.88460	102.13203
30050.00000	102.07627	1144.47337	102.07627
30100.00000	101.73453	1145.26471	101.73453
30150.00000	101.80227	1140.87605	101.80227
30200.00000	101.72478	1139.85729	101.72478
30250.00000	101.42891	1139.61758	101.42891
30300.00000	100.89901	1140.36851	100.89901
30350.00000	101.20366	1141.56146	101.20366
30400.00000	101.15417	1138.84670	101.15417
30450.00000	100.69430	1139.03111	100.69430
30500.00000	100.78186	1138.45399	100.78186
30550.00000	100.70872	1140.11205	100.70872
30600.00000	100.61629	1141.27755	100.61629
30650.00000	100.65004	1141.39414	100.65004
30700.00000	100.73111	1141.20681	100.73111
30750.00000	100.61065	1143.27703	100.61065
30800.00000	100.72258	1143.50395	100.72258
30850.00000	100.99042	1146.25595	100.99042
30900.00000	100.78849	1148.06501	100.78849
30950.00000	101.37648	1147.27422	101.37648
31000.00000	101.62629	1147.31276	101.62629
31050.00000	102.00064	1148.91809	102.00064
31100.00000	102.52179	1149.44525	102.52179
31150.00000	102.55714	1149.08075	102.55714
31200.00000	103.34764	1148.61957	103.34764
31250.00000	103.72406	1148.43597	103.72406
31300.00000	104.17892	1147.34853	104.17892
31350.00000	104.70987	1146.23056	104.70987
31400.00000	105.00244	1143.80950	105.00244
31450.00000	105.49081	1142.14916	105.49081
31500.00000	105.86645	1138.72285	105.86645
31550.00000	106.29334	1137.16934	106.29334
31600.00000	106.78887	1133.24586	106.78887
31650.00000	107.06695	1130.45790	107.06695
31700.00000	107.41332	1127.98530	107.41332
31750.00000	107.75412	1125.80730	107.75412
31800.00000	107.95829	1121.77016	107.95829
31850.00000	108.30520	1117.69624	108.30520
31900.00000	108.31806	1114.91304	108.31806
31950.00000	108.58048	1111.55301	108.58048
32000.00000	108.82123	1108.11689	108.82123
32050.00000	108.96267	1104.54782	108.96267
32100.00000	109.08153	1101.40137	109.08153
32150.00000	109.21641	1098.54209	109.21641
32200.00000	109.39552	1094.84215	109.39552
32250.00000	109.45073	1091.30780	109.45073
32300.00000	109.55391	1088.24668	109.55391
32350.00000	109.55456	1085.72578	109.55456
32400.00000	109.84813	1083.06536	109.84813
32450.00000	109.78484	1079.17777	109.78484
32500.00000	109.91836	1076.90242	109.91836
32550.00000	110.07726	1073.03514	110.07726
32600.00000	110.06702	1070.30882	110.06702
32650.00000	110.20047	1066.95736	110.20047
32700.00000	110.30181	1063.87234	110.30181
32750.00000	110.30622	1060.48619	110.30622
32800.00000	110.47808	1058.55992	110.47808
32850.00000	110.60474	1055.54301	110.60474
32900.00000	110.59939	1051.23261	110.59939
32950.00000	110.55908	1047.97479	110.55908
33000.00000	110.57657	1047.23025	110.57657
33050.00000	110.69126	1042.20435	110.69126
33100.00000	110.81907	1039.79439	110.81907
33150.00000	110.92494	1037.66731	110.92494
33200.00000	111.08533	1035.65090	111.08533
33250.00000	110.97854	1032.50569	110.97854
33300.00000	110.92104	1028.74177	110.92104
33350.00000	111.07312	1025.94333	111.07312
33400.00000	111.14176	1023.93612	111.14176
33450.00000	111.25914	1020.24051	111.25914
33500.00000	111.50694	1018.62925	111.50694
33550.00000	111.23516	1014.21310	111.23516
33600.00000	111.50287	1012.18184	111.50287
33650.00000	111.53222	1009.36088	111.53222
33700.00000	111.55479	1007.05148	111.55479
33750.00000	111.51453	1004.10089	111.51453
33800.00000	111.73367	1001.68999	111.73367
33850.00000	111.52089	999.17753	111.52089
33900.00000	111.66938	996.57358	111.66938
33950.00000	111.85694	994.25042	111.85694
34000.00000	111.92833	991.04586	111.92833
34050.00000	111.84223	988.12024	111.84223
34100.00000	111.90252	987.29157	111.90252
34150.00000	112.11086	983.55523	112.11086
34200.00000	112.09449	982.78368	112.09449
34250.00000	112.25600	979.47309	112.25600
34300.00000	112.26254	976.78856	112.26254
34350.00000	112.50830	974.07096	112.50830
34400.00000	112.19953	973.39131	112.19953
34450.00000	112.45480	968.65635	112.45480
34500.00000	112.45592	968.06640	112.45592
34550.00000	112.57258	965.70693	112.57258
34600.00000	112.49842	962.95823	112.49842
34650.00000	112.89139	962.80196	112.89139
34700.00000	112.60440	961.19021	112.60440
34750.00000	112.99662	955.41503	112.99662
34800.00000	113.17846	955.80905	113.17846
34850.00000	113.47435	955.23079	113.47435
34900.00000	113.69532	950.89061	113.69532
34950.00000	113.62566	950.00901	113.62566
35000.00000	113.76743	946.56010	113.76743
35050.00000	114.07158	945.82448	114.07158
35100.00000	114.29964	942.54024	114.29964
35150.00000	114.12391	941.19098	114.12391
35200.00000	114.26601	937.68517	114.26601
35250.00000	114.43514	935.77887	114.43514
35300.00000	114.66818	932.70243	114.66818
35350.00000	114.89276	930.50999	114.89276
35400.00000	114.89707	927.91451	114.89707
35450.00000	115.11248	926.29742	115.11248
35500.00000	114.90752	924.07901	114.90752
35550.00000	115.37337	922.91515	115.37337
35600.00000	115.34573	920.00122	115.34573
35650.00000	115.64610	918.03984	115.64610
35700.00000	115.77298	915.83220	115.77298
35750.00000	115.73052	914.56490	115.73052
35800.00000	116.00043	913.64392	116.00043
35850.00000	116.26932	910.08346	116.26932
35900.00000	116.45177	908.17865	116.45177
35950.00000	116.73541	906.07497	116.73541
36000.00000	116.85313	904.00254	116.85313
36050.00000	117.13977	901.61090	117.13977
36100.00000	117.39926	899.67479	117.39926
36150.00000	117.49690	897.28824	117.49690
36200.00000	117.73872	895.87063	117.73872
36250.00000	117.90639	893.07460	117.90639
36300.00000	117.96721	891.42801	117.96721
36350.00000	118.43379	888.96744	118.43379
36400.00000	118.73131	886.82771	118.73131
36450.00000	118.74238	883.66948	118.74238
36500.00000	119.24901	882.46913	119.24901
36550.00000	119.32518	878.08387	119.32518
36600.00000	119.64204	876.22050	119.64204
36650.00000	119.91219	873.73812	119.91219
36700.00000	120.27378	869.94530	120.27378
36750.00000	120.51389	867.19138	120.51389
36800.00000	120.69193	864.27568	120.69193
36850.00000	120.78544	860.88613	120.78544
36900.00000	121.20889	857.55974	121.20889
36950.00000	121.23212	853.79802	121.23212
37000.00000	121.24516	851.10774	121.24516
37050.00000	121.43065	848.05434	121.43065
37100.00000	121.79181	843.47971	121.79181
37150.00000	121.95971	839.27703	121.95971
37200.00000	122.29583	836.78273	122.29583
37250.00000	122.01081	832.46036	122.01081
37300.00000	122.13089	828.76092	122.13089
37350.00000	122.47743	825.31649	122.47743
37400.00000	122.28359	822.16536	122.28359
37450.00000	122.24137	818.77118	122.24137
37500.00000	122.62982	814.27157	122.62982
37550.00000	122.31648	811.65222	122.31648
37600.00000	122.34931	808.23135	122.34931
37650.00000	122.40113	804.89595	122.40113
37700.00000	122.42613	800.55786	122.42613
37750.00000	122.42141	798.53942	122.42141
37800.00000	122.30512	794.41231	122.30512
37850.00000	122.29719	790.13276	122.29719
37900.00000	122.25627	787.46569	122.25627
37950.00000	122.25878	785.66632	122.25878
38000.00000	122.14979	782.91451	122.14979
38050.00000	122.26567	779.53307	122.26567
38100.00000	122.34391	776.38375	122.34391
38150.00000	122.27891	772.75745	122.27891
38200.00000	122.44884	769.35689	122.44884
38250.00000	122.38803	766.58986	122.38803
38300.00000	122.50037	762.57957	122.50037
38350.00000	122.46572	760.07947	122.46572
38400.00000	122.52185	756.78878	122.52185
38450.00000	122.58620	752.64687	122.58620
38500.00000	122.72790	749.00517	122.72790
38550.00000	122.84776	745.86194	122.84776
38600.00000	122.94148	742.22871	122.94148
38650.00000	123.06126	738.04717	123.06126
38700.00000	123.12095	733.93296	123.12095
38750.00000	123.24633	730.07649	123.24633
38800.00000	123.34321	726.00143	123.34321
38850.00000	123.46168	721.41625	123.46168
38900.00000	123.59184	717.08645	123.59184
38950.00000	123.62450	712.08035	123.62450
39000.00000	123.70192	707.28728	123.70192
39050.00000	123.84032	702.47187	123.84032
39100.00000	123.75805	697.54694	123.75805
39150.00000	123.76074	692.25687	123.76074
39200.00000	123.80118	687.16443	123.80118
39250.00000	123.77662	681.52744	123.77662
39300.00000	123.70428	676.08476	123.70428
39350.00000	123.60688	671.22755	123.60688
39400.00000	123.50042	665.30024	123.50042
39450.00000	123.29279	660.31038	123.29279
39500.00000	123.15703	654.94471	123.15703
39550.00000	122.90197	649.44174	122.90197
39600.00000	122.58784	644.26351	122.58784
39650.00000	122.35502	639.76007	122.35502
39700.00000	122.03330	634.76305	122.03330
39750.00000	121.74719	629.55723	121.74719
39800.00000	121.40109	625.18508	121.40109
39850.00000	121.02643	620.67849	121.02643
39900.00000	120.62306	616.75742	120.62306
39950.00000	120.32063	612.91390	120.32063
40000.00000	119.74513	609.89501	119.74513
40050.00000	119.49228	605.18469	119.49228
40100.00000	119.11022	601.41026	119.11022
40150.00000	118.67241	598.38229	118.67241
40200.00000	118.24634	594.57535	118.24634
40250.00000	117.87907	592.12926	117.87907
40300.00000	117.55509	589.30977	117.55509
40350.00000	116.93225	586.71987	116.93225
40400.00000	116.52821	584.52783	116.52821
40450.00000	116.17049	581.93346	116.17049
40500.00000	115.82975	580.19219	115.82975
40550.00000	115.47051	577.55471	115.47051
40600.00000	115.02673	575.77325	115.02673
40650.00000	114.66875	575.02722	114.66875
40700.00000	114.16284	573.82485	114.16284
40750.00000	114.03604	572.37811	114.03604
40800.00000	113.62751	570.82668	113.62751
40850.00000	113.28253	570.85194	113.28253
40900.00000	112.97061	569.29938	112.97061
40950.00000	112.50473	569.85978	112.50473
41000.00000	112.07875	569.07176	112.07875
41050.00000	112.02601	568.91865	112.02601
41100.00000	111.86304	568.44000	111.86304
41150.00000	111.77823	569.60440	111.77823
41200.00000	111.60044	569.19095	111.60044
41250.00000	111.30133	567.55270	111.30133
41300.00000	110.95042	568.99044	110.95042
41350.00000	111.10358	570.05086	111.10358
41400.00000	110.95359	566.16137	110.95359
41450.00000	111.10334	569.07272	111.10334
41500.00000	110.84447	568.38487	110.84447
41550.00000	110.62911	572.52514	110.62911
41600.00000	110.47518	570.31295	110.47518
41650.00000	110.84126	569.86981	110.84126
41700.00000	111.09307	571.33027	111.09307
41750.00000	110.90329	574.75554	110.90329
41800.00000	110.07277	569.70623	110.07277
41850.00000	110.07642	571.00098	110.07642
41900.00000	109.97927	570.52747	109.97927
41950.00000	111.38430	575.81560	111.38430
42000.00000	110.13760	569.66246	110.13760
42050.00000	109.37533	570.27568	109.37533
42100.00000	109.96240	570.49041	109.96240
42150.00000	109.48806	564.31672	109.48806
42200.00000	109.52106	571.44850	109.52106
42250.00000	109.67095	570.37060	109.67095
42300.00000	108.59933	567.08289	108.59933
42350.00000	109.38921	568.19489	109.38921
42400.00000	109.31578	567.80034	109.31578
42450.00000	109.69050	562.62478	109.69050
42500.00000	109.44130	562.51720	109.44130
42550.00000	109.53640	573.08189	109.53640
42600.00000	109.24750	563.24366	109.24750
42650.00000	108.87776	565.61967	108.87776
42700.00000	108.42406	561.40124	108.42406
42750.00000	109.82449	559.61721	109.82449
42800.00000	109.09672	553.85212	109.09672
42850.00000	108.76118	550.84675	108.76118
42900.00000	109.55902	557.19800	109.55902
42950.00000	108.91150	550.41530	108.91150
43000.00000	109.41562	540.50754	109.41562
43050.00000	109.14470	539.54706	109.14470
43100.00000	109.42653	543.31771	109.42653
43150.00000	108.49354	537.78692	108.49354
43200.00000	109.07282	533.10336	109.07282
43250.00000	109.10802	529.83700	109.10802
43300.00000	109.36218	527.01916	109.36218
43350.00000	109.68688	523.19706	109.68688
43400.00000	109.05790	519.87469	109.05790
43450.00000	110.30505	519.04098	110.30505
43500.00000	108.95072	511.75079	108.95072
43550.00000	109.75916	508.67317	109.75916
43600.00000	109.32290	504.02334	109.32290
43650.00000	109.67365	494.37283	109.67365
43700.00000	109.46737	495.20172	109.46737
43750.00000	109.02073	494.12267	109.02073
43800.00000	109.41731	485.87621	109.41731
43850.00000	110.02412	481.00028	110.02412
43900.00000	110.02253	479.78594	110.02253
43950.00000	110.46599	475.16143	110.46599
44000.00000	109.73524	470.05292	109.73524
44050.00000	110.18291	464.42572	110.18291
44100.00000	110.33076	454.43594	110.33076
44150.00000	110.19391	456.94978	110.19391
44200.00000	109.87850	454.34700	109.87850
44250.00000	110.29902	447.38856	110.29902
44300.00000	110.67088	441.00016	110.67088
44350.00000	109.66558	436.43515	109.66558
44400.00000	110.33084	432.94426	110.33084
44450.00000	110.67473	429.07654	110.67473
44500.00000	110.14667	427.08232	110.14667
44550.00000	111.39348	415.00296	111.39348
44600.00000	110.24364	417.66815	110.24364
44650.00000	109.90006	407.91534	109.90006
44700.00000	109.73236	404.18441	109.73236
44750.00000	109.74313	403.48826	109.74313
44800.00000	110.52165	398.43908	110.52165
44850.00000	110.00161	392.06199	110.00161
44900.00000	109.46350	391.73469	109.46350
44950.00000	109.67719	385.09054	109.67719
45000.00000	109.76392	375.79469	109.76392
45050.00000	108.32129	381.56316	108.32129
45100.00000	108.59298	374.04973	108.59298
45150.00000	108.64379	361.77017	108.64379
45200.00000	108.12740	364.00967	108.12740
45250.00000	108.35312	360.91293	108.35312
45300.00000	107.99007	355.15804	107.99007
45350.00000	107.47113	349.51871	107.47113
45400.00000	107.48554	348.25094	107.48554
45450.00000	107.34391	342.23745	107.34391
45500.00000	105.96178	335.77237	105.96178
45550.00000	106.06253	339.99893	106.06253
45600.00000	106.81709	330.41587	106.81709
45650.00000	105.04400	323.75227	105.04400
45700.00000	105.00461	322.92864	105.00461
45750.00000	105.59386	326.99000	105.59386
45800.00000	104.15218	315.97643	104.15218
45850.00000	104.11860	317.70571	104.11860
45900.00000	103.18947	314.93689	103.18947
45950.00000	103.31222	316.56413	103.31222
46000.00000	102.07387	299.39342	102.07387
46050.00000	102.24349	299.55927	102.24349
46100.00000	101.17366	305.33034	101.17366
46150.00000	101.31071	302.63157	101.31071
46200.00000	98.85743	293.74425	98.85743
46250.00000	100.13213	294.33638	100.13213
46300.00000	98.88045	294.60230	98.88045
46350.00000	100.09048	290.51001	100.09048
46400.00000	97.58705	290.03316	97.58705
46450.00000	96.08595	288.88636	96.08595
46500.00000	97.88399	288.37597	97.88399
46550.00000	96.96607	296.55240	96.96607
46600.00000	97.29161	298.09603	97.29161
46650.00000	93.99522	292.79392	93.99522
46700.00000	94.29094	301.68228	94.29094
46750.00000	95.54426	310.84707	95.54426
46800.00000	93.13481	298.78127	93.13481
46850.00000	95.06000	-44.70722	95.06000
46900.00000	94.71775	-51.78774	94.71775
46950.00000	95.95891	-51.74389	95.95891
47000.00000	94.75606	-45.73542	94.75606
47050.00000	97.22366	-53.12976	97.22366
47100.00000	96.14967	-55.90566	96.14967
47150.00000	97.24259	-52.73743	97.24259
47200.00000	95.38600	-54.08266	95.38600
47250.00000	97.46999	-56.06402	97.46999
47300.00000	96.72035	-65.08917	96.72035
47350.00000	96.84232	-413.29173	96.84232
47400.00000	96.06260	-417.89132	96.06260
47450.00000	97.15840	-414.89070	97.15840
47500.00000	95.44526	-429.97619	95.44526
47550.00000	95.32709	-780.28882	95.32709
47600.00000	95.05465	-788.21947	95.05465
47650.00000	97.00235	-787.85988	97.00235
47700.00000	95.58755	-786.52679	95.58755
47750.00000	94.27346	-784.16959	94.27346
47800.00000	95.11982	-804.35133	95.11982
47850.00000	95.75089	-1153.01810	95.75089
47900.00000	96.41850	-1499.26244	96.41850
47950.00000	95.05302	-1503.83889	95.05302
48000.00000	95.09618	-1499.88135	95.09618
48050.00000	96.46277	-1511.64413	96.46277
48100.00000	94.93803	-1511.88851	94.93803
48150.00000	95.89307	-1865.28284	95.89307
48200.00000	96.31870	-1867.12894	96.31870
48250.00000	95.85798	-1873.92484	95.85798
48300.00000	96.29423	-1879.81192	96.29423
48350.00000	95.84577	-1882.30718	95.84577
48400.00000	96.79556	-2229.83359	96.79556
48450.00000	97.54676	-2230.95701	97.54676
48500.00000	96.69638	-2238.33158	96.69638
48550.00000	96.11268	-2248.83804	96.11268
48600.00000	97.72634	-2601.22226	97.72634
48650.00000	98.50255	-2600.08023	98.50255
48700.00000	98.40211	-2615.73823	98.40211
48750.00000	97.38174	-2963.42923	97.38174
48800.00000	97.09479	-2974.15296	97.09479
48850.00000	98.18098	-2975.90219	98.18098
48900.00000	97.09442	-3330.59003	97.09442
48950.00000	98.21270	-3348.53811	98.21270
49000.00000	98.23693	-3353.76773	98.23693
49050.00000	97.70321	-3356.94911	97.70321
49100.00000	97.53573	-3711.47031	97.53573
49150.00000	98.64874	-4074.46200	98.64874
49200.00000	98.07787	-4090.23810	98.07787
49250.00000	96.82969	-4438.36292	96.82969
49300.00000	97.30805	-4095.41891	97.30805
49350.00000	95.67962	-4083.23806	95.67962
49400.00000	97.19883	-3737.08249	97.19883
49450.00000	95.55326	-3390.21265	95.55326
49500.00000	95.59323	-3047.47113	95.59323
49550.00000	96.45694	-2698.33285	96.45694
49600.00000	94.79631	-2684.39673	94.79631
49650.00000	95.62332	-2687.80122	95.62332
49700.00000	94.91934	-2355.74313	94.91934
49750.00000	93.21746	-2361.11488	93.21746
49800.00000	92.34609	-2384.01306	92.34609
49850.00000	89.79185	-2369.27543	89.79185
49900.00000	85.68410	-2024.17493	85.68410
49950.00000	89.73291	-1724.10253	89.73291
