---ACOUSTIC CALIBRATION---
Filename: C:\Data\CL0809 DATA\CL0809400\RightSecondary.calib
Date: 8/9/2019 1:48:05 PM
Format: 4
Probe Tube Correction File: C:\Data\Probe Tube Calibrations\74_ProbeTube.calib
Experiment VIs: 2128
EPL_CFTS.exe V15.0.1f5 (2015)
DAQmx V15.1

Attenuation (dB): 40.000000
Min Freq (Hz): 50.000000
Max Freq (Hz): 99950.000000
Freq Step (Hz): 50.000000
Sample Rate (Hz): 200000.000000
[Smoothing]
Method=None
MA.Iterations=0
MA.Length=0
Loess.Length=0
Loess.Type=Linear
Loess.Robust=FALSE


Freq(Hz)	Mag(dB)	Phase(deg)	Unsmoothed(dB)

50.00000	90.86866	156.62975	90.86866
100.00000	65.72869	-3.55391	65.72869
150.00000	77.22267	127.42970	77.22267
200.00000	66.93765	120.79803	66.93765
250.00000	63.28138	505.54125	63.28138
300.00000	71.12370	523.91259	71.12370
350.00000	68.92964	635.28480	68.92964
400.00000	51.45036	697.91344	51.45036
450.00000	71.03025	769.29116	71.03025
500.00000	74.10272	837.26970	74.10272
550.00000	76.40657	805.85417	76.40657
600.00000	79.55310	759.72847	79.55310
650.00000	84.82742	734.31829	84.82742
700.00000	84.29766	753.22393	84.29766
750.00000	89.25395	707.35422	89.25395
800.00000	89.46384	690.93738	89.46384
850.00000	89.36808	682.26187	89.36808
900.00000	90.03140	670.71294	90.03140
950.00000	90.91279	657.80379	90.91279
1000.00000	91.41910	651.35154	91.41910
1050.00000	91.19526	633.69155	91.19526
1100.00000	90.06968	627.66700	90.06968
1150.00000	89.69598	626.22545	89.69598
1200.00000	88.71922	629.51393	88.71922
1250.00000	89.86997	636.71247	89.86997
1300.00000	91.12450	632.95622	91.12450
1350.00000	91.58258	632.87997	91.58258
1400.00000	92.73610	632.44885	92.73610
1450.00000	93.49883	630.14017	93.49883
1500.00000	94.99734	629.40236	94.99734
1550.00000	96.38769	622.13638	96.38769
1600.00000	97.54055	617.43196	97.54055
1650.00000	98.74121	613.26024	98.74121
1700.00000	102.88119	596.11859	102.88119
1750.00000	99.97146	575.51901	99.97146
1800.00000	99.77017	569.91877	99.77017
1850.00000	99.48645	562.10131	99.48645
1900.00000	99.37669	555.46405	99.37669
1950.00000	98.75644	548.90190	98.75644
2000.00000	97.86850	543.84729	97.86850
2050.00000	96.94154	545.03122	96.94154
2100.00000	97.30105	551.07517	97.30105
2150.00000	98.55206	547.15679	98.55206
2200.00000	98.82425	537.49616	98.82425
2250.00000	98.25674	531.61616	98.25674
2300.00000	97.88073	530.84894	97.88073
2350.00000	97.87884	527.23090	97.87884
2400.00000	97.87640	524.92699	97.87640
2450.00000	97.69122	521.20283	97.69122
2500.00000	97.14289	521.28986	97.14289
2550.00000	97.26669	521.35253	97.26669
2600.00000	97.47627	520.27853	97.47627
2650.00000	97.57553	519.94370	97.57553
2700.00000	97.81140	518.22260	97.81140
2750.00000	98.00169	516.89584	98.00169
2800.00000	98.22488	514.72245	98.22488
2850.00000	98.50803	513.03417	98.50803
2900.00000	98.78207	510.72184	98.78207
2950.00000	99.05589	508.53479	99.05589
3000.00000	99.32217	506.39207	99.32217
3050.00000	99.54605	503.73825	99.54605
3100.00000	99.77570	500.99331	99.77570
3150.00000	99.79248	498.42630	99.79248
3200.00000	99.94026	495.60139	99.94026
3250.00000	100.17554	493.55437	100.17554
3300.00000	100.19099	491.32036	100.19099
3350.00000	100.41912	489.70241	100.41912
3400.00000	100.51180	488.05806	100.51180
3450.00000	100.69364	487.27427	100.69364
3500.00000	100.87355	486.74206	100.87355
3550.00000	101.60278	484.71765	101.60278
3600.00000	101.70066	481.20324	101.70066
3650.00000	102.00336	480.75592	102.00336
3700.00000	102.23873	479.16440	102.23873
3750.00000	102.73923	476.50562	102.73923
3800.00000	103.55736	475.11456	103.55736
3850.00000	104.09695	466.34815	104.09695
3900.00000	104.48538	459.20886	104.48538
3950.00000	103.73117	456.38976	103.73117
4000.00000	103.39477	458.12861	103.39477
4050.00000	103.81582	459.66624	103.81582
4100.00000	104.52554	460.06386	104.52554
4150.00000	106.16454	457.29619	106.16454
4200.00000	107.14360	452.69800	107.14360
4250.00000	107.26556	440.10751	107.26556
4300.00000	107.39871	437.10149	107.39871
4350.00000	107.82453	432.31734	107.82453
4400.00000	108.16582	426.13749	108.16582
4450.00000	108.25741	419.13838	108.25741
4500.00000	108.36927	413.09908	108.36927
4550.00000	108.28072	407.88560	108.28072
4600.00000	108.33171	402.54511	108.33171
4650.00000	108.36290	397.78671	108.36290
4700.00000	108.35347	392.96859	108.35347
4750.00000	108.34927	388.33412	108.34927
4800.00000	108.38136	383.95474	108.38136
4850.00000	108.41728	379.17854	108.41728
4900.00000	108.45123	373.75031	108.45123
4950.00000	108.44640	368.57152	108.44640
5000.00000	108.38561	362.96305	108.38561
5050.00000	108.27192	357.24996	108.27192
5100.00000	108.07724	351.41848	108.07724
5150.00000	107.73987	345.64917	107.73987
5200.00000	107.16339	340.37463	107.16339
5250.00000	106.28127	339.58852	106.28127
5300.00000	106.75065	340.39055	106.75065
5350.00000	107.03863	334.23073	107.03863
5400.00000	106.85385	328.17078	106.85385
5450.00000	106.51910	323.31372	106.51910
5500.00000	106.21040	318.81732	106.21040
5550.00000	105.91432	314.92996	105.91432
5600.00000	105.57508	310.53492	105.57508
5650.00000	105.13266	307.03067	105.13266
5700.00000	104.72587	303.61090	104.72587
5750.00000	104.37171	300.66824	104.37171
5800.00000	104.01113	297.99374	104.01113
5850.00000	103.63310	295.27662	103.63310
5900.00000	103.28420	292.63001	103.28420
5950.00000	102.95820	290.32183	102.95820
6000.00000	102.63679	288.11143	102.63679
6050.00000	102.32255	285.67777	102.32255
6100.00000	102.00227	283.42574	102.00227
6150.00000	101.64108	281.20268	101.64108
6200.00000	101.28580	279.49169	101.28580
6250.00000	100.95656	277.86633	100.95656
6300.00000	100.64719	276.23541	100.64719
6350.00000	100.33263	274.82341	100.33263
6400.00000	100.02208	273.65100	100.02208
6450.00000	99.72531	272.78012	99.72531
6500.00000	99.45048	272.08630	99.45048
6550.00000	99.24798	271.90817	99.24798
6600.00000	99.15978	271.65259	99.15978
6650.00000	99.12122	271.08330	99.12122
6700.00000	99.16068	270.22675	99.16068
6750.00000	99.22104	268.79179	99.22104
6800.00000	99.24393	266.86754	99.24393
6850.00000	99.24116	264.28515	99.24116
6900.00000	99.16463	261.66200	99.16463
6950.00000	99.00482	259.13985	99.00482
7000.00000	98.80264	256.60131	98.80264
7050.00000	98.57279	254.32498	98.57279
7100.00000	98.33126	252.25601	98.33126
7150.00000	98.04496	250.33057	98.04496
7200.00000	97.72358	248.82020	97.72358
7250.00000	97.37888	247.78089	97.37888
7300.00000	97.05625	246.95428	97.05625
7350.00000	96.75669	246.76160	96.75669
7400.00000	96.48369	246.74699	96.48369
7450.00000	96.27942	247.51978	96.27942
7500.00000	96.13534	248.38869	96.13534
7550.00000	96.05602	249.20886	96.05602
7600.00000	96.13306	250.14757	96.13306
7650.00000	96.26814	250.44030	96.26814
7700.00000	96.42341	250.68569	96.42341
7750.00000	96.60559	250.12861	96.60559
7800.00000	96.81207	249.54658	96.81207
7850.00000	97.01978	248.34838	97.01978
7900.00000	97.20583	247.09639	97.20583
7950.00000	97.34797	245.68377	97.34797
8000.00000	97.47376	244.13433	97.47376
8050.00000	97.62695	242.61606	97.62695
8100.00000	97.73144	240.85955	97.73144
8150.00000	97.83264	239.10659	97.83264
8200.00000	97.93814	237.58572	97.93814
8250.00000	98.03450	235.65403	98.03450
8300.00000	98.16132	233.98016	98.16132
8350.00000	98.21055	231.81315	98.21055
8400.00000	98.30515	230.05165	98.30515
8450.00000	98.36916	228.27977	98.36916
8500.00000	98.44418	226.30580	98.44418
8550.00000	98.54911	224.68904	98.54911
8600.00000	98.62691	222.87239	98.62691
8650.00000	98.69603	221.32929	98.69603
8700.00000	98.77250	219.59913	98.77250
8750.00000	98.87060	217.85574	98.87060
8800.00000	98.96200	215.97772	98.96200
8850.00000	99.07529	213.93346	99.07529
8900.00000	99.15063	212.11690	99.15063
8950.00000	99.29558	210.22169	99.29558
9000.00000	99.35494	208.37303	99.35494
9050.00000	99.47047	206.30311	99.47047
9100.00000	99.52659	204.50931	99.52659
9150.00000	99.70213	202.58477	99.70213
9200.00000	99.82082	200.18017	99.82082
9250.00000	99.88016	197.67821	99.88016
9300.00000	99.99697	195.48026	99.99697
9350.00000	100.10638	192.86645	100.10638
9400.00000	100.20606	190.19424	100.20606
9450.00000	100.30345	187.50034	100.30345
9500.00000	100.41279	184.51392	100.41279
9550.00000	100.45565	181.58183	100.45565
9600.00000	100.50705	178.96959	100.50705
9650.00000	100.61719	176.10778	100.61719
9700.00000	100.66578	172.97558	100.66578
9750.00000	100.67818	169.80351	100.67818
9800.00000	100.61659	166.94399	100.61659
9850.00000	100.58467	164.04203	100.58467
9900.00000	100.56345	161.47897	100.56345
9950.00000	100.47440	159.08047	100.47440
10000.00000	100.51092	157.09340	100.51092
10050.00000	100.46574	154.54749	100.46574
10100.00000	100.42969	151.90455	100.42969
10150.00000	100.32531	149.76541	100.32531
10200.00000	100.28402	147.68075	100.28402
10250.00000	100.21620	145.73513	100.21620
10300.00000	100.19195	143.89643	100.19195
10350.00000	100.17953	142.06052	100.17953
10400.00000	100.16473	140.00075	100.16473
10450.00000	100.18323	137.83835	100.18323
10500.00000	100.21515	135.58518	100.21515
10550.00000	100.26552	133.26653	100.26552
10600.00000	100.36909	130.54757	100.36909
10650.00000	100.44426	127.94365	100.44426
10700.00000	100.49765	124.82774	100.49765
10750.00000	100.55493	122.06306	100.55493
10800.00000	100.62344	118.79013	100.62344
10850.00000	100.68826	115.70904	100.68826
10900.00000	100.71969	112.45219	100.71969
10950.00000	100.71492	109.37213	100.71492
11000.00000	100.76827	106.07447	100.76827
11050.00000	100.75222	102.87748	100.75222
11100.00000	100.74881	99.27509	100.74881
11150.00000	100.70277	95.82142	100.70277
11200.00000	100.66622	92.47531	100.66622
11250.00000	100.51232	88.41839	100.51232
11300.00000	100.36128	84.81166	100.36128
11350.00000	100.19649	81.01861	100.19649
11400.00000	99.94791	77.05744	99.94791
11450.00000	99.70996	73.23725	99.70996
11500.00000	99.45190	69.43837	99.45190
11550.00000	99.13889	65.55021	99.13889
11600.00000	98.82867	62.07813	98.82867
11650.00000	98.52694	58.77168	98.52694
11700.00000	98.21235	55.05901	98.21235
11750.00000	97.78080	51.97648	97.78080
11800.00000	97.42862	49.46948	97.42862
11850.00000	97.06954	47.02039	97.06954
11900.00000	96.64569	45.19719	96.64569
11950.00000	96.34955	43.49782	96.34955
12000.00000	96.01864	42.28547	96.01864
12050.00000	95.64151	41.02987	95.64151
12100.00000	95.21926	39.92779	95.21926
12150.00000	94.83493	38.48056	94.83493
12200.00000	94.36594	37.14610	94.36594
12250.00000	93.94781	36.52662	93.94781
12300.00000	93.39554	35.65315	93.39554
12350.00000	93.03440	35.44503	93.03440
12400.00000	92.61343	34.12112	92.61343
12450.00000	92.31761	33.37795	92.31761
12500.00000	91.95285	33.65270	91.95285
12550.00000	91.66034	33.40227	91.66034
12600.00000	91.43331	31.86543	91.43331
12650.00000	91.15795	32.48234	91.15795
12700.00000	90.84077	32.64790	90.84077
12750.00000	90.66193	33.27614	90.66193
12800.00000	90.54737	33.51633	90.54737
12850.00000	90.25892	33.99539	90.25892
12900.00000	90.08819	33.33076	90.08819
12950.00000	89.95613	32.95914	89.95613
13000.00000	89.78644	31.17992	89.78644
13050.00000	89.58137	29.75267	89.58137
13100.00000	89.52039	28.21290	89.52039
13150.00000	89.69302	27.68838	89.69302
13200.00000	89.79609	24.38919	89.79609
13250.00000	90.34540	20.76330	90.34540
13300.00000	91.09007	22.02341	91.09007
13350.00000	92.08903	21.06624	92.08903
13400.00000	93.29682	26.22396	93.29682
13450.00000	93.74362	35.94851	93.74362
13500.00000	93.42306	50.68246	93.42306
13550.00000	92.21315	58.42268	92.21315
13600.00000	90.43918	61.58523	90.43918
13650.00000	88.71305	60.43200	88.71305
13700.00000	87.48519	56.67979	87.48519
13750.00000	86.70825	48.80299	86.70825
13800.00000	86.38757	41.35067	86.38757
13850.00000	86.44542	33.28692	86.44542
13900.00000	86.74625	25.67564	86.74625
13950.00000	87.75064	20.20008	87.75064
14000.00000	89.06092	17.27274	89.06092
14050.00000	90.89440	18.15866	90.89440
14100.00000	93.04984	21.83163	93.04984
14150.00000	94.29360	36.76527	94.29360
14200.00000	94.44225	52.37051	94.44225
14250.00000	93.31402	65.21119	93.31402
14300.00000	91.88153	69.61563	91.88153
14350.00000	90.70798	69.75654	90.70798
14400.00000	89.89817	67.19340	89.89817
14450.00000	89.50135	63.63231	89.50135
14500.00000	89.25581	58.33874	89.25581
14550.00000	89.54023	52.71335	89.54023
14600.00000	89.88179	48.62875	89.88179
14650.00000	90.56805	44.13308	90.56805
14700.00000	91.43736	38.79730	91.43736
14750.00000	92.47363	35.92594	92.47363
14800.00000	93.60470	34.39581	93.60470
14850.00000	94.75941	34.05475	94.75941
14900.00000	96.01549	35.85966	96.01549
14950.00000	96.81429	39.11392	96.81429
15000.00000	97.14093	42.89001	97.14093
15050.00000	97.10443	46.67438	97.10443
15100.00000	96.96315	46.87983	96.96315
15150.00000	96.75194	44.98577	96.75194
15200.00000	96.68425	41.91878	96.68425
15250.00000	96.53907	37.39489	96.53907
15300.00000	96.57027	32.46717	96.57027
15350.00000	96.88066	27.65512	96.88066
15400.00000	97.25087	22.51175	97.25087
15450.00000	97.61016	16.43847	97.61016
15500.00000	98.19334	12.35922	98.19334
15550.00000	98.77339	 9.07600	98.77339
15600.00000	99.42070	 6.27600	99.42070
15650.00000	99.90274	 4.70169	99.90274
15700.00000	100.08091	 4.13398	100.08091
15750.00000	100.35763	 3.20417	100.35763
15800.00000	100.35102	 2.33307	100.35102
15850.00000	100.29640	 1.23986	100.29640
15900.00000	100.06451	-1.65450	100.06451
15950.00000	99.92409	-4.32601	99.92409
16000.00000	99.85595	-7.23236	99.85595
16050.00000	99.90972	-10.70885	99.90972
16100.00000	99.98610	-14.37224	99.98610
16150.00000	100.18155	-17.87188	100.18155
16200.00000	100.43484	-20.53623	100.43484
16250.00000	100.64762	-23.59344	100.64762
16300.00000	100.90719	-26.18205	100.90719
16350.00000	101.21258	-27.78830	101.21258
16400.00000	101.38531	-29.48728	101.38531
16450.00000	101.59912	-30.68917	101.59912
16500.00000	101.69562	-32.47343	101.69562
16550.00000	101.71115	-34.20004	101.71115
16600.00000	101.74317	-36.58142	101.74317
16650.00000	101.76499	-38.85791	101.76499
16700.00000	101.84556	-41.65588	101.84556
16750.00000	101.90873	-44.45505	101.90873
16800.00000	102.01988	-46.76302	102.01988
16850.00000	102.21048	-49.75793	102.21048
16900.00000	102.38050	-52.08641	102.38050
16950.00000	102.53918	-54.63897	102.53918
17000.00000	102.71013	-56.66169	102.71013
17050.00000	102.87520	-58.67151	102.87520
17100.00000	103.03398	-60.36983	103.03398
17150.00000	103.17098	-62.64059	103.17098
17200.00000	103.21647	-64.48390	103.21647
17250.00000	103.34612	-67.23039	103.34612
17300.00000	103.43684	-69.72020	103.43684
17350.00000	103.53745	-72.60993	103.53745
17400.00000	103.66114	-75.39548	103.66114
17450.00000	103.80270	-78.02926	103.80270
17500.00000	103.91680	-80.84075	103.91680
17550.00000	104.06534	-83.53694	104.06534
17600.00000	104.22178	-85.80909	104.22178
17650.00000	104.36322	-88.41640	104.36322
17700.00000	104.49561	-90.79969	104.49561
17750.00000	104.65134	-93.23912	104.65134
17800.00000	104.75506	-95.62092	104.75506
17850.00000	104.85773	-98.03431	104.85773
17900.00000	104.99555	-100.54840	104.99555
17950.00000	105.09702	-103.33521	105.09702
18000.00000	105.21572	-106.03822	105.21572
18050.00000	105.32188	-108.97425	105.32188
18100.00000	105.43219	-111.74996	105.43219
18150.00000	105.55157	-114.69045	105.55157
18200.00000	105.65083	-117.67830	105.65083
18250.00000	105.76254	-120.69027	105.76254
18300.00000	105.84853	-123.70938	105.84853
18350.00000	105.96643	-126.77576	105.96643
18400.00000	106.03084	-129.77569	106.03084
18450.00000	106.11526	-132.70723	106.11526
18500.00000	106.20161	-135.69879	106.20161
18550.00000	106.27856	-138.81103	106.27856
18600.00000	106.29833	-141.78097	106.29833
18650.00000	106.36898	-144.97467	106.36898
18700.00000	106.41521	-147.99064	106.41521
18750.00000	106.41311	-151.05347	106.41311
18800.00000	106.42803	-154.22397	106.42803
18850.00000	106.43933	-157.03720	106.43933
18900.00000	106.40229	-160.03208	106.40229
18950.00000	106.40229	-163.04809	106.40229
19000.00000	106.34986	-166.09030	106.34986
19050.00000	106.33050	-169.00667	106.33050
19100.00000	106.30777	-171.85792	106.30777
19150.00000	106.26827	-174.40706	106.26827
19200.00000	106.25834	-177.24603	106.25834
19250.00000	106.18679	-179.74927	106.18679
19300.00000	106.18867	-182.25722	106.18867
19350.00000	106.17171	-184.96283	106.17171
19400.00000	106.12173	-187.27798	106.12173
19450.00000	106.08395	-190.08883	106.08395
19500.00000	106.08430	-192.36700	106.08430
19550.00000	106.06679	-194.76609	106.06679
19600.00000	106.03414	-197.19605	106.03414
19650.00000	106.03078	-199.54456	106.03078
19700.00000	106.02944	-202.01561	106.02944
19750.00000	106.02246	-204.37698	106.02246
19800.00000	106.04819	-206.53024	106.04819
19850.00000	106.02703	-209.11694	106.02703
19900.00000	106.05927	-211.45853	106.05927
19950.00000	106.06344	-213.75493	106.06344
20000.00000	106.06623	-216.57103	106.06623
20050.00000	106.08745	-218.94180	106.08745
20100.00000	106.11758	-221.39009	106.11758
20150.00000	106.13104	-224.11117	106.13104
20200.00000	106.15698	-226.68181	106.15698
20250.00000	106.17058	-228.99939	106.17058
20300.00000	106.17806	-231.64282	106.17806
20350.00000	106.19558	-234.09850	106.19558
20400.00000	106.21304	-236.78800	106.21304
20450.00000	106.23530	-239.46577	106.23530
20500.00000	106.24384	-242.14194	106.24384
20550.00000	106.24658	-245.00965	106.24658
20600.00000	106.24951	-247.71003	106.24951
20650.00000	106.26970	-250.53547	106.26970
20700.00000	106.28350	-253.01414	106.28350
20750.00000	106.26483	-255.90631	106.26483
20800.00000	106.23489	-258.63239	106.23489
20850.00000	106.21902	-261.69226	106.21902
20900.00000	106.19046	-264.36364	106.19046
20950.00000	106.17262	-267.36752	106.17262
21000.00000	106.16454	-270.37989	106.16454
21050.00000	106.11647	-273.24479	106.11647
21100.00000	106.09091	-276.00699	106.09091
21150.00000	106.03248	-278.80168	106.03248
21200.00000	105.96710	-281.52502	105.96710
21250.00000	105.88514	-284.44397	105.88514
21300.00000	105.77922	-287.47087	105.77922
21350.00000	105.70191	-290.36744	105.70191
21400.00000	105.60051	-293.33562	105.60051
21450.00000	105.55499	-296.12917	105.55499
21500.00000	105.46542	-298.60675	105.46542
21550.00000	105.39252	-301.34084	105.39252
21600.00000	105.28050	-304.20784	105.28050
21650.00000	105.16768	-306.68345	105.16768
21700.00000	104.99813	-309.65874	104.99813
21750.00000	104.89814	-312.39089	104.89814
21800.00000	104.75943	-315.20057	104.75943
21850.00000	104.63523	-317.66613	104.63523
21900.00000	104.49547	-320.10424	104.49547
21950.00000	104.36277	-322.52044	104.36277
22000.00000	104.13675	-324.76751	104.13675
22050.00000	103.96993	-326.85604	103.96993
22100.00000	103.83472	-328.84533	103.83472
22150.00000	103.71619	-330.97649	103.71619
22200.00000	103.58488	-333.23299	103.58488
22250.00000	103.47500	-335.22136	103.47500
22300.00000	103.41166	-337.14168	103.41166
22350.00000	103.26049	-339.68906	103.26049
22400.00000	103.16635	-341.84375	103.16635
22450.00000	103.05862	-343.68704	103.05862
22500.00000	102.94735	-345.81624	102.94735
22550.00000	102.83891	-348.05355	102.83891
22600.00000	102.67825	-349.95348	102.67825
22650.00000	102.55236	-351.69307	102.55236
22700.00000	102.44784	-353.93027	102.44784
22750.00000	102.36387	-356.11056	102.36387
22800.00000	102.22459	-358.18930	102.22459
22850.00000	102.11087	-359.93633	102.11087
22900.00000	102.00981	-361.97343	102.00981
22950.00000	101.96068	-363.74536	101.96068
23000.00000	101.83456	-365.49077	101.83456
23050.00000	101.72004	-367.62058	101.72004
23100.00000	101.58311	-369.72821	101.58311
23150.00000	101.43013	-371.73010	101.43013
23200.00000	101.30264	-374.01640	101.30264
23250.00000	101.27375	-375.92743	101.27375
23300.00000	101.20646	-378.20106	101.20646
23350.00000	101.03445	-379.85750	101.03445
23400.00000	100.91673	-381.34764	100.91673
23450.00000	100.81395	-383.07098	100.81395
23500.00000	100.78106	-384.75023	100.78106
23550.00000	100.58651	-386.52223	100.58651
23600.00000	100.51290	-388.42023	100.51290
23650.00000	100.31396	-389.85300	100.31396
23700.00000	100.27139	-391.50446	100.27139
23750.00000	100.14756	-393.55400	100.14756
23800.00000	99.99296	-395.14287	99.99296
23850.00000	99.90556	-396.71143	99.90556
23900.00000	99.80771	-398.48411	99.80771
23950.00000	99.66997	-399.59112	99.66997
24000.00000	99.60293	-401.55781	99.60293
24050.00000	99.48327	-403.10044	99.48327
24100.00000	99.33845	-404.89395	99.33845
24150.00000	99.16988	-406.26314	99.16988
24200.00000	99.10374	-408.20904	99.10374
24250.00000	99.09095	-409.06648	99.09095
24300.00000	99.00129	-410.98623	99.00129
24350.00000	98.90260	-412.14974	98.90260
24400.00000	98.86387	-413.72273	98.86387
24450.00000	98.76414	-414.55210	98.76414
24500.00000	98.67860	-416.87697	98.67860
24550.00000	98.49252	-418.35947	98.49252
24600.00000	98.47076	-419.69957	98.47076
24650.00000	98.43540	-421.00263	98.43540
24700.00000	98.34326	-422.64277	98.34326
24750.00000	98.33110	-424.02354	98.33110
24800.00000	98.20333	-424.89374	98.20333
24850.00000	98.21098	-426.11603	98.21098
24900.00000	98.10574	-427.19585	98.10574
24950.00000	98.14300	-428.80741	98.14300
25000.00000	98.05008	-430.50918	98.05008
25050.00000	98.02293	-431.11299	98.02293
25100.00000	97.97967	-432.09115	97.97967
25150.00000	97.92428	-433.36663	97.92428
25200.00000	97.94782	-434.57950	97.94782
25250.00000	97.87904	-436.38294	97.87904
25300.00000	97.80787	-437.70804	97.80787
25350.00000	97.90195	-439.02609	97.90195
25400.00000	97.92568	-440.33275	97.92568
25450.00000	97.94087	-442.44289	97.94087
25500.00000	97.91896	-443.18876	97.91896
25550.00000	97.92153	-444.80591	97.92153
25600.00000	97.90194	-445.80309	97.90194
25650.00000	97.93416	-448.05070	97.93416
25700.00000	97.94425	-449.01990	97.94425
25750.00000	98.02174	-451.38204	98.02174
25800.00000	98.01614	-452.49024	98.01614
25850.00000	98.04418	-454.05522	98.04418
25900.00000	98.04969	-456.12107	98.04969
25950.00000	98.04838	-457.67210	98.04838
26000.00000	98.03837	-459.12723	98.03837
26050.00000	98.12144	-461.30013	98.12144
26100.00000	98.15133	-463.05590	98.15133
26150.00000	98.13058	-465.55261	98.13058
26200.00000	98.09062	-466.86580	98.09062
26250.00000	98.11965	-469.17985	98.11965
26300.00000	98.05370	-471.42558	98.05370
26350.00000	98.06773	-473.49995	98.06773
26400.00000	98.08779	-475.79375	98.08779
26450.00000	97.98982	-478.40612	97.98982
26500.00000	97.93595	-480.17878	97.93595
26550.00000	97.89951	-481.79747	97.89951
26600.00000	97.83305	-483.84815	97.83305
26650.00000	97.76671	-486.36013	97.76671
26700.00000	97.67774	-488.19601	97.67774
26750.00000	97.54161	-490.09477	97.54161
26800.00000	97.47277	-492.23550	97.47277
26850.00000	97.31659	-493.60429	97.31659
26900.00000	97.17729	-495.67479	97.17729
26950.00000	97.00515	-497.56349	97.00515
27000.00000	96.83920	-499.20906	96.83920
27050.00000	96.74450	-500.58304	96.74450
27100.00000	96.57892	-502.26832	96.57892
27150.00000	96.41418	-503.43798	96.41418
27200.00000	96.34804	-505.37258	96.34804
27250.00000	96.18959	-506.58907	96.18959
27300.00000	96.05639	-507.89790	96.05639
27350.00000	95.88612	-508.86812	95.88612
27400.00000	95.76079	-509.67114	95.76079
27450.00000	95.69628	-511.22195	95.69628
27500.00000	95.50952	-512.10513	95.50952
27550.00000	95.43232	-512.81144	95.43232
27600.00000	95.32263	-513.51288	95.32263
27650.00000	95.21677	-514.55847	95.21677
27700.00000	95.07295	-515.45184	95.07295
27750.00000	94.97198	-515.70828	94.97198
27800.00000	94.93327	-516.66158	94.93327
27850.00000	94.89088	-517.43128	94.89088
27900.00000	94.81039	-518.07422	94.81039
27950.00000	94.78280	-518.25922	94.78280
28000.00000	94.69644	-518.68584	94.69644
28050.00000	94.66369	-519.43431	94.66369
28100.00000	94.61088	-519.63251	94.61088
28150.00000	94.63930	-520.37090	94.63930
28200.00000	94.64979	-520.78784	94.64979
28250.00000	94.65628	-521.56749	94.65628
28300.00000	94.61232	-522.40721	94.61232
28350.00000	94.70711	-522.73899	94.70711
28400.00000	94.70273	-523.39155	94.70273
28450.00000	94.63352	-523.95671	94.63352
28500.00000	94.70697	-524.65417	94.70697
28550.00000	94.76359	-525.28878	94.76359
28600.00000	94.83743	-526.15447	94.83743
28650.00000	94.89690	-526.27742	94.89690
28700.00000	94.87971	-527.18072	94.87971
28750.00000	94.97053	-527.66588	94.97053
28800.00000	94.92277	-528.75453	94.92277
28850.00000	94.99303	-529.31127	94.99303
28900.00000	95.08102	-530.02429	95.08102
28950.00000	95.16215	-530.68504	95.16215
29000.00000	95.27319	-531.06287	95.27319
29050.00000	95.31488	-531.98690	95.31488
29100.00000	95.36574	-532.30366	95.36574
29150.00000	95.42037	-534.03793	95.42037
29200.00000	95.59053	-534.01192	95.59053
29250.00000	95.60818	-534.76499	95.60818
29300.00000	95.71350	-535.69256	95.71350
29350.00000	95.82890	-536.07464	95.82890
29400.00000	95.89359	-536.82833	95.89359
29450.00000	96.04487	-537.66000	96.04487
29500.00000	96.21044	-538.78623	96.21044
29550.00000	96.35730	-539.01026	96.35730
29600.00000	96.38703	-540.06842	96.38703
29650.00000	96.54709	-540.57702	96.54709
29700.00000	96.72444	-541.09827	96.72444
29750.00000	96.83444	-542.33036	96.83444
29800.00000	96.94041	-542.99340	96.94041
29850.00000	97.17538	-543.81319	97.17538
29900.00000	97.32673	-544.39124	97.32673
29950.00000	97.45209	-545.43140	97.45209
30000.00000	97.65061	-546.72291	97.65061
30050.00000	97.78115	-547.27527	97.78115
30100.00000	97.98975	-548.20267	97.98975
30150.00000	98.16490	-549.30556	98.16490
30200.00000	98.39309	-550.25306	98.39309
30250.00000	98.54355	-551.41624	98.54355
30300.00000	98.72797	-552.66318	98.72797
30350.00000	98.99589	-553.59331	98.99589
30400.00000	99.16016	-554.85717	99.16016
30450.00000	99.37211	-555.90687	99.37211
30500.00000	99.63071	-557.11126	99.63071
30550.00000	99.79893	-558.33199	99.79893
30600.00000	100.02740	-559.81528	100.02740
30650.00000	100.25575	-561.09005	100.25575
30700.00000	100.48794	-562.48750	100.48794
30750.00000	100.67426	-564.04456	100.67426
30800.00000	100.88118	-565.36844	100.88118
30850.00000	101.11920	-566.85280	101.11920
30900.00000	101.35785	-568.57054	101.35785
30950.00000	101.57347	-570.32878	101.57347
31000.00000	101.80222	-571.83152	101.80222
31050.00000	102.04960	-573.41892	102.04960
31100.00000	102.30027	-575.23796	102.30027
31150.00000	102.47702	-576.96530	102.47702
31200.00000	102.70443	-578.87742	102.70443
31250.00000	102.94553	-580.75816	102.94553
31300.00000	103.19642	-582.80234	103.19642
31350.00000	103.40062	-584.52252	103.40062
31400.00000	103.65192	-586.71834	103.65192
31450.00000	103.85965	-588.49632	103.85965
31500.00000	104.04768	-590.81177	104.04768
31550.00000	104.27525	-593.04766	104.27525
31600.00000	104.48832	-595.34165	104.48832
31650.00000	104.70719	-597.74921	104.70719
31700.00000	104.84687	-600.05170	104.84687
31750.00000	105.05073	-602.27783	105.05073
31800.00000	105.21949	-604.79575	105.21949
31850.00000	105.39497	-606.88708	105.39497
31900.00000	105.55047	-609.44696	105.55047
31950.00000	105.70335	-611.94404	105.70335
32000.00000	105.84546	-614.42874	105.84546
32050.00000	105.98532	-616.84245	105.98532
32100.00000	106.12370	-619.19723	106.12370
32150.00000	106.22478	-621.73143	106.22478
32200.00000	106.33906	-624.10035	106.33906
32250.00000	106.46711	-626.56760	106.46711
32300.00000	106.53269	-628.80094	106.53269
32350.00000	106.64449	-631.27061	106.64449
32400.00000	106.72697	-633.54341	106.72697
32450.00000	106.82171	-635.99407	106.82171
32500.00000	106.88943	-638.17555	106.88943
32550.00000	106.95287	-640.37546	106.95287
32600.00000	107.02102	-642.56749	107.02102
32650.00000	107.05765	-644.90213	107.05765
32700.00000	107.12152	-646.82133	107.12152
32750.00000	107.18825	-649.07353	107.18825
32800.00000	107.23693	-651.01871	107.23693
32850.00000	107.30172	-653.11459	107.30172
32900.00000	107.33731	-654.99393	107.33731
32950.00000	107.40516	-656.78994	107.40516
33000.00000	107.47991	-658.75731	107.47991
33050.00000	107.50960	-660.55795	107.50960
33100.00000	107.57930	-662.50912	107.57930
33150.00000	107.64226	-664.18013	107.64226
33200.00000	107.69221	-665.86519	107.69221
33250.00000	107.73129	-667.57950	107.73129
33300.00000	107.80595	-669.21484	107.80595
33350.00000	107.88313	-670.81003	107.88313
33400.00000	107.91664	-672.44777	107.91664
33450.00000	107.97284	-674.05750	107.97284
33500.00000	108.05963	-675.30458	108.05963
33550.00000	108.12711	-676.75134	108.12711
33600.00000	108.20988	-678.14730	108.20988
33650.00000	108.29206	-679.44956	108.29206
33700.00000	108.37536	-680.78702	108.37536
33750.00000	108.49205	-682.09142	108.49205
33800.00000	108.58469	-683.26948	108.58469
33850.00000	108.73272	-684.29285	108.73272
33900.00000	108.85542	-685.51865	108.85542
33950.00000	109.03445	-686.56380	109.03445
34000.00000	109.18246	-687.56230	109.18246
34050.00000	109.33844	-688.56019	109.33844
34100.00000	109.52036	-689.71687	109.52036
34150.00000	109.71880	-690.76188	109.71880
34200.00000	109.93534	-691.84645	109.93534
34250.00000	110.16630	-692.98260	110.16630
34300.00000	110.41323	-694.15476	110.41323
34350.00000	110.68361	-695.46526	110.68361
34400.00000	110.94948	-696.62871	110.94948
34450.00000	111.20654	-697.91814	111.20654
34500.00000	111.51029	-699.38473	111.51029
34550.00000	111.80553	-700.92131	111.80553
34600.00000	112.11963	-702.49942	112.11963
34650.00000	112.44013	-704.18978	112.44013
34700.00000	112.74583	-705.75889	112.74583
34750.00000	113.07758	-707.73878	113.07758
34800.00000	113.40809	-709.71591	113.40809
34850.00000	113.74999	-711.91212	113.74999
34900.00000	114.05589	-714.14439	114.05589
34950.00000	114.34613	-716.53539	114.34613
35000.00000	114.60319	-718.47756	114.60319
35050.00000	114.89049	-720.62165	114.89049
35100.00000	115.18688	-722.49012	115.18688
35150.00000	115.53609	-724.43279	115.53609
35200.00000	115.90001	-726.70953	115.90001
35250.00000	116.26789	-729.01793	116.26789
35300.00000	116.60596	-731.60962	116.60596
35350.00000	116.95575	-734.13219	116.95575
35400.00000	117.31478	-736.96004	117.31478
35450.00000	117.64357	-739.72017	117.64357
35500.00000	117.98669	-742.58785	117.98669
35550.00000	118.30791	-745.51883	118.30791
35600.00000	118.63475	-748.58346	118.63475
35650.00000	118.94972	-751.61415	118.94972
35700.00000	119.25883	-754.84146	119.25883
35750.00000	119.55770	-757.94576	119.55770
35800.00000	119.86160	-761.22109	119.86160
35850.00000	120.15731	-764.52647	120.15731
35900.00000	120.43444	-767.82743	120.43444
35950.00000	120.70849	-771.15730	120.70849
36000.00000	120.97641	-774.47729	120.97641
36050.00000	121.23078	-777.95877	121.23078
36100.00000	121.47412	-781.33495	121.47412
36150.00000	121.71831	-784.79065	121.71831
36200.00000	121.96106	-788.24084	121.96106
36250.00000	122.18200	-791.67667	122.18200
36300.00000	122.40646	-795.06986	122.40646
36350.00000	122.63242	-798.54444	122.63242
36400.00000	122.84948	-802.01939	122.84948
36450.00000	123.06206	-805.44156	123.06206
36500.00000	123.27949	-808.82965	123.27949
36550.00000	123.49436	-812.25359	123.49436
36600.00000	123.70009	-815.64963	123.70009
36650.00000	123.91053	-818.98645	123.91053
36700.00000	124.13284	-822.32449	124.13284
36750.00000	124.34648	-825.70213	124.34648
36800.00000	124.58618	-829.11574	124.58618
36850.00000	124.81644	-832.44364	124.81644
36900.00000	125.05424	-835.91262	125.05424
36950.00000	125.30580	-839.38003	125.30580
37000.00000	125.56183	-842.85582	125.56183
37050.00000	125.82748	-846.39014	125.82748
37100.00000	126.09747	-850.07228	126.09747
37150.00000	126.37371	-853.77529	126.37371
37200.00000	126.65932	-857.54710	126.65932
37250.00000	126.94976	-861.47550	126.94976
37300.00000	127.24919	-865.48004	127.24919
37350.00000	127.55936	-869.65255	127.55936
37400.00000	127.86652	-874.05134	127.86652
37450.00000	128.17467	-878.54422	128.17467
37500.00000	128.48126	-883.20636	128.48126
37550.00000	128.79497	-888.20039	128.79497
37600.00000	129.09093	-893.38480	129.09093
37650.00000	129.37212	-898.80636	129.37212
37700.00000	129.61867	-904.40501	129.61867
37750.00000	129.84363	-910.32780	129.84363
37800.00000	130.02042	-916.43575	130.02042
37850.00000	130.16848	-922.63653	130.16848
37900.00000	130.24769	-929.04758	130.24769
37950.00000	130.26925	-935.46362	130.26925
38000.00000	130.24632	-941.84100	130.24632
38050.00000	130.15821	-948.26910	130.15821
38100.00000	130.02078	-954.43489	130.02078
38150.00000	129.83706	-960.37940	129.83706
38200.00000	129.62079	-966.12401	129.62079
38250.00000	129.37308	-971.54849	129.37308
38300.00000	129.12097	-976.75344	129.12097
38350.00000	128.86178	-981.76847	128.86178
38400.00000	128.59885	-986.50973	128.59885
38450.00000	128.33505	-991.08210	128.33505
38500.00000	128.07877	-995.41766	128.07877
38550.00000	127.82966	-999.77417	127.82966
38600.00000	127.58425	-1003.95312	127.58425
38650.00000	127.35037	-1008.07400	127.35037
38700.00000	127.11656	-1012.12447	127.11656
38750.00000	126.88777	-1016.11076	126.88777
38800.00000	126.65625	-1020.09126	126.65625
38850.00000	126.43690	-1024.09904	126.43690
38900.00000	126.20652	-1028.03447	126.20652
38950.00000	125.97354	-1031.93963	125.97354
39000.00000	125.73988	-1035.85117	125.73988
39050.00000	125.49697	-1039.77182	125.49697
39100.00000	125.23951	-1043.69533	125.23951
39150.00000	124.97172	-1047.53759	124.97172
39200.00000	124.69091	-1051.29950	124.69091
39250.00000	124.40839	-1054.93171	124.40839
39300.00000	124.11028	-1058.46104	124.11028
39350.00000	123.81674	-1061.93570	123.81674
39400.00000	123.52931	-1065.37477	123.52931
39450.00000	123.25174	-1068.62615	123.25174
39500.00000	122.96268	-1071.92058	122.96268
39550.00000	122.66996	-1075.07578	122.66996
39600.00000	122.37750	-1078.33698	122.37750
39650.00000	122.07258	-1081.48696	122.07258
39700.00000	121.76829	-1084.55949	121.76829
39750.00000	121.44879	-1087.45858	121.44879
39800.00000	121.12593	-1090.30320	121.12593
39850.00000	120.81289	-1093.06408	120.81289
39900.00000	120.48375	-1095.65113	120.48375
39950.00000	120.18856	-1098.16244	120.18856
40000.00000	119.88520	-1100.57458	119.88520
40050.00000	119.58921	-1102.96565	119.58921
40100.00000	119.30396	-1105.26595	119.30396
40150.00000	119.03220	-1107.48263	119.03220
40200.00000	118.76158	-1109.64487	118.76158
40250.00000	118.51075	-1111.82926	118.51075
40300.00000	118.25631	-1113.97297	118.25631
40350.00000	118.01079	-1116.06056	118.01079
40400.00000	117.77481	-1118.18685	117.77481
40450.00000	117.53159	-1120.27294	117.53159
40500.00000	117.30404	-1122.25587	117.30404
40550.00000	117.07595	-1124.31730	117.07595
40600.00000	116.83002	-1126.22593	116.83002
40650.00000	116.60560	-1128.25438	116.60560
40700.00000	116.37413	-1130.25273	116.37413
40750.00000	116.15624	-1132.16010	116.15624
40800.00000	115.92566	-1134.06683	115.92566
40850.00000	115.70463	-1135.88859	115.70463
40900.00000	115.49767	-1137.74130	115.49767
40950.00000	115.27365	-1139.56063	115.27365
41000.00000	115.05047	-1141.35376	115.05047
41050.00000	114.83443	-1143.04683	114.83443
41100.00000	114.61755	-1144.72724	114.61755
41150.00000	114.42733	-1146.27953	114.42733
41200.00000	114.21158	-1147.93014	114.21158
41250.00000	114.00253	-1149.40608	114.00253
41300.00000	113.79765	-1150.86141	113.79765
41350.00000	113.59117	-1152.38076	113.59117
41400.00000	113.41694	-1153.57919	113.41694
41450.00000	113.22451	-1154.82543	113.22451
41500.00000	113.03506	-1156.00145	113.03506
41550.00000	112.84724	-1157.00553	112.84724
41600.00000	112.66883	-1158.25334	112.66883
41650.00000	112.51212	-1159.15203	112.51212
41700.00000	112.37611	-1160.06178	112.37611
41750.00000	112.22931	-1160.79775	112.22931
41800.00000	112.08819	-1161.66333	112.08819
41850.00000	111.97726	-1162.57842	111.97726
41900.00000	111.90091	-1163.25287	111.90091
41950.00000	111.82057	-1164.00762	111.82057
42000.00000	111.78648	-1164.69104	111.78648
42050.00000	111.74911	-1165.31256	111.74911
42100.00000	111.76367	-1165.84356	111.76367
42150.00000	111.77123	-1166.53963	111.77123
42200.00000	111.81188	-1167.30068	111.81188
42250.00000	111.85311	-1168.09738	111.85311
42300.00000	111.93888	-1169.16071	111.93888
42350.00000	112.01115	-1170.01477	112.01115
42400.00000	112.09565	-1171.12891	112.09565
42450.00000	112.20027	-1172.35904	112.20027
42500.00000	112.29611	-1173.56103	112.29611
42550.00000	112.39171	-1175.04823	112.39171
42600.00000	112.51509	-1176.62177	112.51509
42650.00000	112.63991	-1177.90037	112.63991
42700.00000	112.76707	-1179.63859	112.76707
42750.00000	112.86673	-1181.52592	112.86673
42800.00000	112.99917	-1183.23610	112.99917
42850.00000	113.12804	-1185.16303	113.12804
42900.00000	113.26791	-1187.23808	113.26791
42950.00000	113.38694	-1189.29874	113.38694
43000.00000	113.53068	-1191.42950	113.53068
43050.00000	113.64180	-1193.70022	113.64180
43100.00000	113.77498	-1196.07981	113.77498
43150.00000	113.89546	-1198.34124	113.89546
43200.00000	114.00943	-1200.97657	114.00943
43250.00000	114.09616	-1203.38131	114.09616
43300.00000	114.22631	-1205.85242	114.22631
43350.00000	114.27697	-1208.35510	114.27697
43400.00000	114.35610	-1211.18239	114.35610
43450.00000	114.43757	-1214.05042	114.43757
43500.00000	114.47627	-1216.70028	114.47627
43550.00000	114.54231	-1219.49809	114.54231
43600.00000	114.52387	-1222.35505	114.52387
43650.00000	114.58786	-1225.23283	114.58786
43700.00000	114.59190	-1228.13517	114.59190
43750.00000	114.59118	-1231.27162	114.59118
43800.00000	114.56164	-1234.40370	114.56164
43850.00000	114.51661	-1237.28722	114.51661
43900.00000	114.51495	-1240.35364	114.51495
43950.00000	114.43985	-1243.21219	114.43985
44000.00000	114.39078	-1246.10710	114.39078
44050.00000	114.31648	-1248.82643	114.31648
44100.00000	114.25077	-1251.66996	114.25077
44150.00000	114.16064	-1254.26739	114.16064
44200.00000	114.09254	-1257.25934	114.09254
44250.00000	113.98234	-1259.65375	113.98234
44300.00000	113.87546	-1262.36351	113.87546
44350.00000	113.77539	-1264.60680	113.77539
44400.00000	113.69471	-1266.91904	113.69471
44450.00000	113.53710	-1269.40044	113.53710
44500.00000	113.45091	-1271.22866	113.45091
44550.00000	113.29343	-1273.40277	113.29343
44600.00000	113.19158	-1275.61227	113.19158
44650.00000	113.03056	-1277.67423	113.03056
44700.00000	112.96048	-1279.71314	112.96048
44750.00000	112.83172	-1281.63650	112.83172
44800.00000	112.70183	-1283.47585	112.70183
44850.00000	112.61456	-1285.45753	112.61456
44900.00000	112.52592	-1287.52949	112.52592
44950.00000	112.42573	-1288.97067	112.42573
45000.00000	112.33637	-1290.58162	112.33637
45050.00000	112.30102	-1292.50134	112.30102
45100.00000	112.21400	-1294.21482	112.21400
45150.00000	112.15907	-1295.78522	112.15907
45200.00000	112.14290	-1297.42333	112.14290
45250.00000	112.11417	-1299.01347	112.11417
45300.00000	112.02397	-1300.51299	112.02397
45350.00000	112.03373	-1302.19202	112.03373
45400.00000	112.10229	-1303.80805	112.10229
45450.00000	112.14028	-1305.60228	112.14028
45500.00000	112.13177	-1307.19020	112.13177
45550.00000	112.18349	-1309.15622	112.18349
45600.00000	112.25131	-1311.28630	112.25131
45650.00000	112.24284	-1313.32187	112.24284
45700.00000	112.21725	-1315.82312	112.21725
45750.00000	112.19236	-1317.80848	112.19236
45800.00000	112.12679	-1320.10831	112.12679
45850.00000	112.12015	-1321.96449	112.12015
45900.00000	112.04961	-1323.97164	112.04961
45950.00000	112.06421	-1326.23584	112.06421
46000.00000	112.10861	-1328.54683	112.10861
46050.00000	112.11859	-1330.57324	112.11859
46100.00000	112.03057	-1332.95241	112.03057
46150.00000	112.04432	-1335.69320	112.04432
46200.00000	111.93366	-1338.42296	111.93366
46250.00000	111.83124	-1340.66290	111.83124
46300.00000	111.68428	-1342.73072	111.68428
46350.00000	111.54700	-1344.97639	111.54700
46400.00000	111.39607	-1346.62692	111.39607
46450.00000	111.24078	-1348.25067	111.24078
46500.00000	111.12293	-1349.64308	111.12293
46550.00000	110.92625	-1350.87704	110.92625
46600.00000	110.82537	-1351.82138	110.82537
46650.00000	110.68797	-1352.73748	110.68797
46700.00000	110.62232	-1353.41945	110.62232
46750.00000	110.55840	-1354.50631	110.55840
46800.00000	110.54743	-1354.59594	110.54743
46850.00000	110.55827	-1355.98390	110.55827
46900.00000	110.57515	-1356.33968	110.57515
46950.00000	110.64483	-1356.57494	110.64483
47000.00000	110.72472	-1357.51010	110.72472
47050.00000	110.79517	-1358.27666	110.79517
47100.00000	110.97417	-1359.07385	110.97417
47150.00000	111.07250	-1359.86041	111.07250
47200.00000	111.26175	-1361.08272	111.26175
47250.00000	111.37226	-1361.93821	111.37226
47300.00000	111.59503	-1363.21402	111.59503
47350.00000	111.81425	-1364.33308	111.81425
47400.00000	111.99527	-1365.65072	111.99527
47450.00000	112.27228	-1367.13182	112.27228
47500.00000	112.51725	-1368.13538	112.51725
47550.00000	112.75814	-1370.18120	112.75814
47600.00000	112.96804	-1372.10298	112.96804
47650.00000	113.17398	-1373.76502	113.17398
47700.00000	113.45732	-1376.29727	113.45732
47750.00000	113.67249	-1378.30127	113.67249
47800.00000	113.97890	-1380.66035	113.97890
47850.00000	114.20833	-1382.91700	114.20833
47900.00000	114.47846	-1384.93029	114.47846
47950.00000	114.77084	-1387.97545	114.77084
48000.00000	114.99661	-1390.75262	114.99661
48050.00000	115.24814	-1393.29921	115.24814
48100.00000	115.44003	-1396.57556	115.44003
48150.00000	115.73365	-1399.58329	115.73365
48200.00000	115.91627	-1402.73914	115.91627
48250.00000	116.07001	-1405.65296	116.07001
48300.00000	116.33461	-1408.90902	116.33461
48350.00000	116.58329	-1412.27794	116.58329
48400.00000	116.63516	-1416.03698	116.63516
48450.00000	116.85191	-1419.42081	116.85191
48500.00000	116.97658	-1422.80377	116.97658
48550.00000	117.14180	-1426.08973	117.14180
48600.00000	117.22750	-1430.53629	117.22750
48650.00000	117.35161	-1433.79902	117.35161
48700.00000	117.42975	-1437.04091	117.42975
48750.00000	117.55413	-1441.22558	117.55413
48800.00000	117.58323	-1444.43270	117.58323
48850.00000	117.55466	-1448.84607	117.55466
48900.00000	117.77274	-1092.06695	117.77274
48950.00000	117.67110	-735.89826	117.67110
49000.00000	117.76422	-379.88492	117.76422
49050.00000	117.81115	-24.03941	117.81115
49100.00000	117.84485	332.91838	117.84485
49150.00000	117.86016	688.28335	117.86016
49200.00000	117.73792	1045.64187	117.73792
49250.00000	117.81652	1401.93750	117.81652
49300.00000	117.80133	1758.65886	117.80133
49350.00000	117.67794	2115.12580	117.67794
49400.00000	117.49878	2470.53810	117.49878
49450.00000	117.54691	2827.36520	117.54691
49500.00000	117.44096	3184.55321	117.44096
49550.00000	117.36231	3540.85033	117.36231
49600.00000	117.27927	3897.55196	117.27927
49650.00000	117.22835	4253.22722	117.22835
49700.00000	116.96242	4610.23471	116.96242
49750.00000	116.90831	4967.72744	116.90831
49800.00000	116.75826	4965.07449	116.75826
49850.00000	116.70716	5680.31379	116.70716
49900.00000	116.64931	5677.97414	116.64931
49950.00000	116.38700	6035.56033	116.38700
50000.00000	116.41078	6032.47288	116.41078
50050.00000	116.17784	6029.75648	116.17784
50100.00000	116.02106	6026.61977	116.02106
50150.00000	116.01700	6024.05356	116.01700
50200.00000	115.87268	6021.04963	115.87268
50250.00000	115.66725	6018.84491	115.66725
50300.00000	115.63644	6016.19829	115.63644
50350.00000	115.46937	6014.32627	115.46937
50400.00000	115.45296	6011.40794	115.45296
50450.00000	115.22939	6008.90702	115.22939
50500.00000	115.14479	6007.53138	115.14479
50550.00000	115.00262	6004.60533	115.00262
50600.00000	115.03102	6001.94243	115.03102
50650.00000	114.94938	6000.22446	114.94938
50700.00000	114.76270	5997.07802	114.76270
50750.00000	114.66965	5994.99427	114.66965
50800.00000	114.64385	5992.46420	114.64385
50850.00000	114.62154	5990.50391	114.62154
50900.00000	114.45478	5987.55420	114.45478
50950.00000	114.49193	5985.01126	114.49193
51000.00000	114.57758	5981.98229	114.57758
51050.00000	114.52736	5980.28345	114.52736
51100.00000	114.43688	5977.15689	114.43688
51150.00000	114.31302	5974.11748	114.31302
51200.00000	114.25834	5971.36591	114.25834
51250.00000	114.22879	5968.81869	114.22879
51300.00000	114.19418	5965.34965	114.19418
51350.00000	114.11743	5963.66601	114.11743
51400.00000	114.04556	5959.23623	114.04556
51450.00000	113.77725	5957.45910	113.77725
51500.00000	113.72750	5954.33954	113.72750
51550.00000	113.58702	5951.23901	113.58702
51600.00000	113.35363	5947.87756	113.35363
51650.00000	112.99881	5945.31783	112.99881
51700.00000	112.87580	5942.20047	112.87580
51750.00000	112.58572	5940.29221	112.58572
51800.00000	112.37881	5937.42191	112.37881
51850.00000	112.17207	5934.33635	112.17207
51900.00000	111.83040	5932.49766	111.83040
51950.00000	111.36182	5930.80694	111.36182
52000.00000	111.02624	5929.34816	111.02624
52050.00000	110.88404	5928.29322	110.88404
52100.00000	110.52037	5927.75889	110.52037
52150.00000	110.18771	5927.30119	110.18771
52200.00000	109.94117	5925.86049	109.94117
52250.00000	109.77277	5925.71903	109.77277
52300.00000	109.34849	5926.95548	109.34849
52350.00000	109.47481	5926.37564	109.47481
52400.00000	109.29585	5925.64601	109.29585
52450.00000	109.35547	5925.79693	109.35547
52500.00000	109.30754	5925.91176	109.30754
52550.00000	109.29296	5926.93543	109.29296
52600.00000	109.31843	5925.88852	109.31843
52650.00000	109.51210	5926.32642	109.51210
52700.00000	109.65386	5926.49287	109.65386
52750.00000	109.75010	5925.73463	109.75010
52800.00000	110.06033	5925.31834	110.06033
52850.00000	110.13709	5924.76450	110.13709
52900.00000	110.40732	5923.35553	110.40732
52950.00000	110.69426	5922.59663	110.69426
53000.00000	110.89910	5920.74430	110.89910
53050.00000	111.05465	5919.62486	111.05465
53100.00000	111.41079	5917.80140	111.41079
53150.00000	111.76386	5916.38484	111.76386
53200.00000	111.84868	5913.99283	111.84868
53250.00000	112.17434	5912.72304	112.17434
53300.00000	112.41607	5909.56758	112.41607
53350.00000	112.54923	5907.72587	112.54923
53400.00000	112.93570	5905.71178	112.93570
53450.00000	113.16797	5902.44074	113.16797
53500.00000	113.35879	5900.26442	113.35879
53550.00000	113.71095	5897.22468	113.71095
53600.00000	113.83689	5893.71932	113.83689
53650.00000	114.11355	5890.84933	114.11355
53700.00000	114.30187	5887.49606	114.30187
53750.00000	114.49289	5884.10264	114.49289
53800.00000	114.64610	5881.45480	114.64610
53850.00000	114.81927	5877.71968	114.81927
53900.00000	114.97603	5874.95587	114.97603
53950.00000	115.10310	5870.70438	115.10310
54000.00000	115.24475	5866.90933	115.24475
54050.00000	115.37009	5863.27381	115.37009
54100.00000	115.48183	5859.58300	115.48183
54150.00000	115.56209	5855.66115	115.56209
54200.00000	115.48418	5852.54996	115.48418
54250.00000	115.61171	5848.18816	115.61171
54300.00000	115.67165	5844.19475	115.67165
54350.00000	115.73256	5840.62030	115.73256
54400.00000	115.87682	5837.50413	115.87682
54450.00000	115.80785	5832.91204	115.80785
54500.00000	115.71628	5829.62227	115.71628
54550.00000	115.67463	5825.84726	115.67463
54600.00000	115.71113	5822.47504	115.71113
54650.00000	115.67031	5817.90395	115.67031
54700.00000	115.59035	5814.47231	115.59035
54750.00000	115.71422	5810.79856	115.71422
54800.00000	115.54105	5806.96408	115.54105
54850.00000	115.40103	5803.44543	115.40103
54900.00000	115.45736	5799.37410	115.45736
54950.00000	115.34255	5796.26213	115.34255
55000.00000	115.40633	5792.42960	115.40633
55050.00000	115.17309	5788.69562	115.17309
55100.00000	115.16000	5785.11121	115.16000
55150.00000	115.09206	5781.23987	115.09206
55200.00000	114.89934	5777.28389	114.89934
55250.00000	114.82563	5773.80643	114.82563
55300.00000	114.75703	5770.03939	114.75703
55350.00000	114.59772	5766.65419	114.59772
55400.00000	114.47835	5762.51438	114.47835
55450.00000	114.33604	5759.05710	114.33604
55500.00000	114.22515	5755.14011	114.22515
55550.00000	114.07231	5751.52546	114.07231
55600.00000	113.89275	5747.84462	113.89275
55650.00000	113.73396	5744.21268	113.73396
55700.00000	113.49664	5740.34501	113.49664
55750.00000	113.30342	5736.72028	113.30342
55800.00000	113.11226	5733.08623	113.11226
55850.00000	112.91112	5729.30095	112.91112
55900.00000	112.67165	5725.96631	112.67165
55950.00000	112.41544	5722.24992	112.41544
56000.00000	112.16249	5718.61757	112.16249
56050.00000	111.92840	5715.46900	111.92840
56100.00000	111.65035	5711.94203	111.65035
56150.00000	111.37218	5708.85361	111.37218
56200.00000	111.05650	5705.51939	111.05650
56250.00000	110.69023	5702.22640	110.69023
56300.00000	110.40419	5699.02823	110.40419
56350.00000	110.09291	5696.03974	110.09291
56400.00000	109.73481	5693.46560	109.73481
56450.00000	109.38636	5690.46262	109.38636
56500.00000	109.06774	5687.85764	109.06774
56550.00000	108.66205	5685.19899	108.66205
56600.00000	108.36805	5682.72901	108.36805
56650.00000	108.04553	5680.21257	108.04553
56700.00000	107.68426	5677.95998	107.68426
56750.00000	107.32325	5675.99562	107.32325
56800.00000	106.93076	5673.76127	106.93076
56850.00000	106.64930	5671.87258	106.64930
56900.00000	106.28985	5670.04275	106.28985
56950.00000	105.93579	5668.03107	105.93579
57000.00000	105.57653	5666.60443	105.57653
57050.00000	105.27629	5664.97815	105.27629
57100.00000	104.97914	5663.16073	104.97914
57150.00000	104.67009	5661.87499	104.67009
57200.00000	104.29327	5660.27997	104.29327
57250.00000	104.03157	5658.57176	104.03157
57300.00000	103.73910	5657.42030	103.73910
57350.00000	103.45148	5656.58367	103.45148
57400.00000	103.17795	5655.60831	103.17795
57450.00000	102.91341	5654.27187	102.91341
57500.00000	102.58733	5653.00851	102.58733
57550.00000	102.32829	5652.44826	102.32829
57600.00000	102.03480	5651.52589	102.03480
57650.00000	101.75854	5651.05613	101.75854
57700.00000	101.49578	5650.20392	101.49578
57750.00000	101.34070	5649.46765	101.34070
57800.00000	101.06146	5649.46673	101.06146
57850.00000	100.89513	5649.30182	100.89513
57900.00000	100.61643	5649.11336	100.61643
57950.00000	100.49140	5649.25909	100.49140
58000.00000	100.26472	5648.95347	100.26472
58050.00000	100.16684	5648.87317	100.16684
58100.00000	100.07647	5648.54984	100.07647
58150.00000	99.99452	5648.88739	99.99452
58200.00000	99.90446	5648.03369	99.90446
58250.00000	99.86780	5648.28277	99.86780
58300.00000	99.75076	5648.21314	99.75076
58350.00000	99.78733	5648.00884	99.78733
58400.00000	99.81701	5648.13685	99.81701
58450.00000	99.84908	5647.43555	99.84908
58500.00000	99.84641	5647.33857	99.84641
58550.00000	99.87539	5646.86374	99.87539
58600.00000	99.88343	5646.35652	99.88343
58650.00000	99.88367	5646.28324	99.88367
58700.00000	99.91679	5645.79213	99.91679
58750.00000	99.97201	5645.47263	99.97201
58800.00000	99.99760	5645.08812	99.99760
58850.00000	100.11819	5644.80727	100.11819
58900.00000	100.14185	5644.33230	100.14185
58950.00000	100.22176	5644.18191	100.22176
59000.00000	100.36474	5643.89278	100.36474
59050.00000	100.49697	5643.43177	100.49697
59100.00000	100.66356	5643.08299	100.66356
59150.00000	100.86195	5642.98924	100.86195
59200.00000	101.03358	5642.36893	101.03358
59250.00000	101.18969	5642.00822	101.18969
59300.00000	101.47633	5641.39638	101.47633
59350.00000	101.68089	5640.88868	101.68089
59400.00000	102.01000	5640.30210	102.01000
59450.00000	102.23871	5639.66342	102.23871
59500.00000	102.58836	5639.08218	102.58836
59550.00000	102.91976	5638.15373	102.91976
59600.00000	103.32474	5637.15702	103.32474
59650.00000	103.78483	5635.38061	103.78483
59700.00000	104.22032	5633.95017	104.22032
59750.00000	104.68850	5631.95146	104.68850
59800.00000	105.16068	5629.46448	105.16068
59850.00000	105.64302	5626.66669	105.64302
59900.00000	106.11535	5623.31088	106.11535
59950.00000	106.55838	5619.65393	106.55838
60000.00000	106.94919	5615.65909	106.94919
60050.00000	107.29873	5611.17527	107.29873
60100.00000	107.55063	5606.52582	107.55063
60150.00000	107.77844	5601.99117	107.77844
60200.00000	107.94316	5596.88297	107.94316
60250.00000	108.02240	5592.08168	108.02240
60300.00000	108.06916	5587.44089	108.06916
60350.00000	108.03423	5583.18504	108.03423
60400.00000	107.99373	5578.70555	107.99373
60450.00000	107.92414	5574.67636	107.92414
60500.00000	107.83642	5570.74009	107.83642
60550.00000	107.70503	5567.18198	107.70503
60600.00000	107.59416	5563.90239	107.59416
60650.00000	107.47789	5560.64200	107.47789
60700.00000	107.37363	5557.39145	107.37363
60750.00000	107.25298	5554.45756	107.25298
60800.00000	107.13748	5551.63219	107.13748
60850.00000	107.04487	5548.68949	107.04487
60900.00000	106.95135	5545.97917	106.95135
60950.00000	106.87035	5543.47878	106.87035
61000.00000	106.75116	5540.91494	106.75116
61050.00000	106.67706	5538.26205	106.67706
61100.00000	106.61995	5535.90398	106.61995
61150.00000	106.55454	5533.44406	106.55454
61200.00000	106.50064	5531.01308	106.50064
61250.00000	106.42254	5528.42652	106.42254
61300.00000	106.38704	5526.07927	106.38704
61350.00000	106.33590	5523.55184	106.33590
61400.00000	106.23248	5521.21340	106.23248
61450.00000	106.22949	5518.79451	106.22949
61500.00000	106.13736	5516.65759	106.13736
61550.00000	106.11130	5514.45674	106.11130
61600.00000	106.10268	5512.07192	106.10268
61650.00000	106.04824	5509.85881	106.04824
61700.00000	106.03464	5507.64218	106.03464
61750.00000	105.98822	5505.57497	105.98822
61800.00000	106.00747	5503.56376	106.00747
61850.00000	105.97369	5501.41980	105.97369
61900.00000	106.02924	5499.37298	106.02924
61950.00000	106.05222	5497.26071	106.05222
62000.00000	106.09338	5494.82570	106.09338
62050.00000	106.20602	5492.63710	106.20602
62100.00000	106.30856	5490.24440	106.30856
62150.00000	106.34679	5487.53549	106.34679
62200.00000	106.43806	5484.82256	106.43806
62250.00000	106.49273	5481.98369	106.49273
62300.00000	106.56400	5479.07158	106.56400
62350.00000	106.58644	5475.85347	106.58644
62400.00000	106.59244	5472.72916	106.59244
62450.00000	106.61640	5469.82061	106.61640
62500.00000	106.60243	5466.58421	106.60243
62550.00000	106.60891	5463.46848	106.60891
62600.00000	106.56671	5460.40030	106.56671
62650.00000	106.48847	5457.35015	106.48847
62700.00000	106.45248	5454.49468	106.45248
62750.00000	106.35972	5451.24050	106.35972
62800.00000	106.28645	5448.63461	106.28645
62850.00000	106.24580	5445.71597	106.24580
62900.00000	106.16473	5442.96584	106.16473
62950.00000	106.04624	5440.10031	106.04624
63000.00000	105.97793	5437.46966	105.97793
63050.00000	105.91431	5435.13519	105.91431
63100.00000	105.83678	5432.51741	105.83678
63150.00000	105.77881	5429.82903	105.77881
63200.00000	105.68920	5427.44010	105.68920
63250.00000	105.59340	5425.01074	105.59340
63300.00000	105.62977	5422.66766	105.62977
63350.00000	105.52692	5420.62312	105.52692
63400.00000	105.44820	5418.22421	105.44820
63450.00000	105.44670	5415.85780	105.44670
63500.00000	105.39911	5413.60546	105.39911
63550.00000	105.36668	5411.21111	105.36668
63600.00000	105.34890	5408.62909	105.34890
63650.00000	105.37521	5406.78460	105.37521
63700.00000	105.41947	5404.26683	105.41947
63750.00000	105.42377	5401.73352	105.42377
63800.00000	105.49870	5399.50125	105.49870
63850.00000	105.54093	5396.58557	105.54093
63900.00000	105.64761	5393.85145	105.64761
63950.00000	105.72888	5390.72077	105.72888
64000.00000	105.77125	5387.49950	105.77125
64050.00000	105.82237	5383.40915	105.82237
64100.00000	105.81166	5379.66766	105.81166
64150.00000	105.73515	5375.88198	105.73515
64200.00000	105.55037	5371.86758	105.55037
64250.00000	105.29403	5368.19990	105.29403
64300.00000	104.99694	5365.36972	104.99694
64350.00000	104.70287	5362.64183	104.70287
64400.00000	104.51963	5360.54150	104.51963
64450.00000	104.28609	5359.48274	104.28609
64500.00000	104.14446	5357.90607	104.14446
64550.00000	104.02316	5356.33259	104.02316
64600.00000	104.08776	5355.13695	104.08776
64650.00000	104.06938	5353.31016	104.06938
64700.00000	104.14022	5351.16526	104.14022
64750.00000	104.20056	5349.10480	104.20056
64800.00000	104.19210	5346.81219	104.19210
64850.00000	104.29117	5344.09868	104.29117
64900.00000	104.32866	5341.97712	104.32866
64950.00000	104.33033	5339.42587	104.33033
65000.00000	104.46943	5336.07841	104.46943
65050.00000	104.50331	5333.81799	104.50331
65100.00000	104.53838	5330.67421	104.53838
65150.00000	104.56623	5327.43160	104.56623
65200.00000	104.58871	5324.68037	104.58871
65250.00000	104.59537	5321.27279	104.59537
65300.00000	104.61221	5317.79918	104.61221
65350.00000	104.61250	5314.11357	104.61250
65400.00000	104.55373	5310.77560	104.55373
65450.00000	104.53964	5306.73605	104.53964
65500.00000	104.48400	5303.08166	104.48400
65550.00000	104.33750	5299.45197	104.33750
65600.00000	104.18639	5295.45252	104.18639
65650.00000	104.07147	5291.92596	104.07147
65700.00000	103.85925	5288.54107	103.85925
65750.00000	103.66304	5285.15432	103.66304
65800.00000	103.46822	5282.02157	103.46822
65850.00000	103.25858	5278.84935	103.25858
65900.00000	102.98577	5276.04104	102.98577
65950.00000	102.80783	5272.92565	102.80783
66000.00000	102.66922	5270.48666	102.66922
66050.00000	102.46762	5267.44668	102.46762
66100.00000	102.18913	5264.60971	102.18913
66150.00000	101.95023	5262.16903	101.95023
66200.00000	101.69864	5259.26654	101.69864
66250.00000	101.50121	5256.49179	101.50121
66300.00000	101.28536	5254.51888	101.28536
66350.00000	100.96091	5251.91372	100.96091
66400.00000	100.83191	5249.69787	100.83191
66450.00000	100.58801	5247.56751	100.58801
66500.00000	100.43723	5245.42054	100.43723
66550.00000	100.10653	5243.42296	100.10653
66600.00000	99.90114	5241.77710	99.90114
66650.00000	99.64225	5239.31437	99.64225
66700.00000	99.45080	5237.79966	99.45080
66750.00000	99.19702	5235.95469	99.19702
66800.00000	99.10161	5234.94759	99.10161
66850.00000	98.89808	5232.84273	98.89808
66900.00000	98.77556	5232.24587	98.77556
66950.00000	98.65387	5230.21059	98.65387
67000.00000	98.56745	5228.35196	98.56745
67050.00000	98.36429	5227.90633	98.36429
67100.00000	98.28232	5226.04151	98.28232
67150.00000	98.26512	5224.69920	98.26512
67200.00000	98.13961	5223.29878	98.13961
67250.00000	98.07708	5221.43232	98.07708
67300.00000	98.17318	5220.08263	98.17318
67350.00000	98.04142	5218.46059	98.04142
67400.00000	98.01871	5216.61567	98.01871
67450.00000	98.09465	5214.58004	98.09465
67500.00000	98.05822	5212.91177	98.05822
67550.00000	98.01965	5211.11512	98.01965
67600.00000	98.06826	5209.31821	98.06826
67650.00000	97.94315	5207.62656	97.94315
67700.00000	97.94069	5205.06286	97.94069
67750.00000	98.00137	5203.15890	98.00137
67800.00000	97.96672	5201.07299	97.96672
67850.00000	97.99287	5198.65771	97.99287
67900.00000	97.98414	5196.85842	97.98414
67950.00000	97.93258	5194.57329	97.93258
68000.00000	97.95083	5192.20851	97.95083
68050.00000	97.92800	5190.10839	97.92800
68100.00000	97.86158	5188.09583	97.86158
68150.00000	97.87063	5185.45472	97.87063
68200.00000	97.89948	5183.32610	97.89948
68250.00000	97.86146	5181.13954	97.86146
68300.00000	97.85539	5179.05591	97.85539
68350.00000	97.80372	5176.41177	97.80372
68400.00000	97.85123	5174.30855	97.85123
68450.00000	97.77448	5171.85176	97.77448
68500.00000	97.81607	5169.55437	97.81607
68550.00000	97.74906	5167.46710	97.74906
68600.00000	97.78236	5164.61332	97.78236
68650.00000	97.75080	5162.70386	97.75080
68700.00000	97.71320	5160.67881	97.71320
68750.00000	97.74819	5158.28602	97.74819
68800.00000	97.72454	5156.00367	97.72454
68850.00000	97.71883	5153.70212	97.71883
68900.00000	97.85154	5151.58885	97.85154
68950.00000	97.80973	5149.45987	97.80973
69000.00000	97.89654	5146.99721	97.89654
69050.00000	97.98609	5144.79559	97.98609
69100.00000	98.12514	5142.12372	98.12514
69150.00000	98.20948	5138.95610	98.20948
69200.00000	98.35490	5136.32830	98.35490
69250.00000	98.47358	5133.40413	98.47358
69300.00000	98.57502	5129.71741	98.57502
69350.00000	98.64720	5126.35956	98.64720
69400.00000	98.70093	5122.56220	98.70093
69450.00000	98.76944	5118.60547	98.76944
69500.00000	98.82762	5114.88026	98.82762
69550.00000	98.84638	5110.43883	98.84638
69600.00000	98.82442	5106.27535	98.82442
69650.00000	98.76275	5102.24807	98.76275
69700.00000	98.69484	5097.61205	98.69484
69750.00000	98.58218	5093.26323	98.58218
69800.00000	98.44806	5088.88562	98.44806
69850.00000	98.26538	5084.18373	98.26538
69900.00000	98.06479	5080.34199	98.06479
69950.00000	97.86745	5075.99774	97.86745
70000.00000	97.60220	5071.72794	97.60220
70050.00000	97.37660	5068.40224	97.37660
70100.00000	97.01882	5063.53228	97.01882
70150.00000	96.74119	5059.59258	96.74119
70200.00000	96.41210	5056.83505	96.41210
70250.00000	96.09099	5052.55607	96.09099
70300.00000	95.76358	5049.08118	95.76358
70350.00000	95.31013	5046.54820	95.31013
70400.00000	94.90835	5042.66541	94.90835
70450.00000	94.66675	5039.48417	94.66675
70500.00000	94.04000	5036.13168	94.04000
70550.00000	93.57705	5033.12742	93.57705
70600.00000	93.16226	5031.98396	93.16226
70650.00000	92.50746	5030.36662	92.50746
70700.00000	92.05642	5028.15787	92.05642
70750.00000	91.69794	5029.63648	91.69794
70800.00000	91.17448	5029.65631	91.17448
70850.00000	91.21854	5030.72038	91.21854
70900.00000	91.30488	5032.99736	91.30488
70950.00000	91.79862	5031.91272	91.79862
71000.00000	92.37229	5029.82233	92.37229
71050.00000	92.66786	5025.71428	92.66786
71100.00000	92.86642	5018.87751	92.86642
71150.00000	93.09809	5013.65644	93.09809
71200.00000	92.89279	5008.64119	92.89279
71250.00000	92.72767	5001.37112	92.72767
71300.00000	92.56745	4996.79781	92.56745
71350.00000	91.95971	4991.34032	91.95971
71400.00000	91.72137	4983.88643	91.72137
71450.00000	91.33404	4980.21029	91.33404
71500.00000	90.34850	4973.28624	90.34850
71550.00000	90.33043	4967.51453	90.33043
71600.00000	89.15526	4964.72403	89.15526
71650.00000	88.31704	4956.75624	88.31704
71700.00000	87.84983	4952.87013	87.84983
71750.00000	86.35547	4952.78192	86.35547
71800.00000	85.75756	4942.44546	85.75756
71850.00000	84.94244	4944.35328	84.94244
71900.00000	83.28209	4943.73899	83.28209
71950.00000	83.12357	4932.62413	83.12357
72000.00000	82.31909	4939.56632	82.31909
72050.00000	80.13440	4931.69156	80.13440
72100.00000	80.27752	4927.70035	80.27752
72150.00000	78.62318	4933.80821	78.62318
72200.00000	76.88248	4919.22972	76.88248
72250.00000	77.34819	4918.56502	77.34819
72300.00000	71.81512	4927.33890	71.81512
72350.00000	70.57739	4887.93759	70.57739
72400.00000	69.93854	4912.28997	69.93854
72450.00000	53.05249	4664.95101	53.05249
72500.00000	65.68735	4455.56623	65.68735
72550.00000	65.00229	4321.07557	65.00229
72600.00000	71.52678	4360.81970	71.52678
72650.00000	65.73109	4375.59446	65.73109
72700.00000	74.13635	4320.84979	74.13635
72750.00000	75.59668	4355.33862	75.59668
72800.00000	71.09096	4338.61519	71.09096
72850.00000	77.58256	4326.90692	77.58256
72900.00000	77.55741	4350.41382	77.55741
72950.00000	75.61177	4325.75066	75.61177
73000.00000	80.13968	4330.38836	80.13968
73050.00000	78.19373	4348.47680	78.19373
73100.00000	78.30040	4317.87267	78.30040
73150.00000	81.96200	4332.64557	81.96200
73200.00000	79.48327	4344.04081	79.48327
73250.00000	80.62473	4318.32345	80.62473
73300.00000	83.28567	4332.58108	83.28567
73350.00000	80.89051	4333.57783	80.89051
73400.00000	84.11269	4319.32241	84.11269
73450.00000	84.84741	4331.94097	84.84741
73500.00000	83.61168	4318.55166	83.61168
73550.00000	86.89208	4313.78697	86.89208
73600.00000	86.25460	4321.14385	86.25460
73650.00000	86.30752	4303.11541	86.30752
73700.00000	88.60486	4305.14670	88.60486
73750.00000	87.08496	4304.82578	87.08496
73800.00000	88.37321	4286.02560	88.37321
73850.00000	89.53073	4293.71232	89.53073
73900.00000	87.67888	4284.46093	87.67888
73950.00000	89.77664	4275.02054	89.77664
74000.00000	89.27875	4283.84845	89.27875
74050.00000	88.61438	4265.94173	88.61438
74100.00000	90.70265	4265.36241	90.70265
74150.00000	89.41935	4265.38011	89.41935
74200.00000	89.96869	4246.85350	89.96869
74250.00000	91.30635	4250.80249	91.30635
74300.00000	90.04548	4231.58937	90.04548
74350.00000	91.90444	4214.45031	91.90444
74400.00000	90.26805	4176.23868	90.26805
74450.00000	84.99079	3998.74241	84.99079
74500.00000	92.14742	3932.84344	92.14742
74550.00000	90.21864	3917.78366	90.21864
74600.00000	89.73201	3884.13310	89.73201
74650.00000	92.40157	3886.45037	92.40157
74700.00000	88.59923	3882.20499	88.59923
74750.00000	91.62264	3859.91612	91.62264
74800.00000	91.69603	3875.66273	91.69603
74850.00000	88.31125	3852.81546	88.31125
74900.00000	92.10543	3850.46988	92.10543
74950.00000	89.40112	3864.21580	89.40112
75000.00000	89.40511	3831.54632	89.40511
75050.00000	91.50674	3846.34359	91.50674
75100.00000	87.01476	3847.78343	87.01476
75150.00000	89.62579	3822.51922	89.62579
75200.00000	90.46796	3844.00827	90.46796
75250.00000	85.13274	3822.72063	85.13274
75300.00000	90.30965	3817.33115	90.30965
75350.00000	88.11629	3846.93611	88.11629
75400.00000	85.95784	3804.05577	85.95784
75450.00000	90.34026	3822.93850	90.34026
75500.00000	85.42205	3841.76079	85.42205
75550.00000	87.99764	3795.94310	87.99764
75600.00000	90.06029	3830.47439	90.06029
75650.00000	82.38900	3816.98956	82.38900
75700.00000	89.51699	3796.72908	89.51699
75750.00000	88.64131	3833.89895	88.64131
75800.00000	83.06892	3790.26606	83.06892
75850.00000	90.38499	3803.93549	90.38499
75900.00000	85.35044	3838.12648	85.35044
75950.00000	86.44040	3775.23463	86.44040
76000.00000	90.29546	3811.63436	90.29546
76050.00000	80.49326	3823.57798	80.49326
76100.00000	88.76430	3775.73950	88.76430
76150.00000	88.97241	3819.76175	88.97241
76200.00000	79.98405	3775.50341	79.98405
76250.00000	90.22965	3784.81039	90.22965
76300.00000	86.72670	3826.98202	86.72670
76350.00000	85.05413	3756.93961	85.05413
76400.00000	90.81421	3796.58981	90.81421
76450.00000	82.60050	3825.99151	82.60050
76500.00000	88.18104	3759.52806	88.18104
76550.00000	89.95538	3804.75006	89.95538
76600.00000	79.12161	3783.84043	79.12161
76650.00000	90.28810	3767.15108	90.28810
76700.00000	87.79526	3811.92071	87.79526
76750.00000	84.14478	3742.56674	84.14478
76800.00000	90.95184	3778.31405	90.95184
76850.00000	84.01113	3808.47879	84.01113
76900.00000	88.48670	3742.89688	88.48670
76950.00000	90.45250	3786.57696	90.45250
77000.00000	80.55268	3767.25111	80.55268
77050.00000	90.50119	3749.95761	90.50119
77100.00000	88.25257	3789.88537	88.25257
77150.00000	84.61112	3729.51887	84.61112
77200.00000	91.05757	3757.99309	91.05757
77250.00000	84.18854	3783.41776	84.18854
77300.00000	88.56563	3726.70330	88.56563
77350.00000	89.92218	3764.09126	89.92218
77400.00000	80.71863	3743.14898	80.71863
77450.00000	89.94849	3732.18425	89.94849
77500.00000	87.69146	3769.61559	87.69146
77550.00000	84.89319	3715.15541	84.89319
77600.00000	90.03928	3741.01484	90.03928
77650.00000	83.62175	3760.53321	83.62175
77700.00000	87.83219	3713.33176	87.83219
77750.00000	88.82402	3747.99163	88.82402
77800.00000	82.36691	3723.92130	82.36691
77850.00000	89.01355	3718.75304	89.01355
77900.00000	86.31942	3752.87212	86.31942
77950.00000	84.90519	3704.58812	84.90519
78000.00000	89.04497	3728.07169	89.04497
78050.00000	83.34094	3738.17575	83.34094
78100.00000	87.30507	3703.48794	87.30507
78150.00000	87.57491	3734.81954	87.57491
78200.00000	83.33267	3709.45405	83.33267
78250.00000	88.40577	3710.64105	88.40577
78300.00000	85.89867	3731.85266	85.89867
78350.00000	85.91596	3698.31173	85.91596
78400.00000	87.98334	3717.22619	87.98334
78450.00000	84.13040	3715.28506	84.13040
78500.00000	87.41686	3700.82869	87.41686
78550.00000	86.98109	3720.61420	86.98109
78600.00000	85.25137	3698.33031	85.25137
78650.00000	88.14033	3702.59073	88.14033
78700.00000	85.98092	3711.46746	85.98092
78750.00000	86.90944	3692.57223	86.90944
78800.00000	87.62439	3705.91190	87.62439
78850.00000	85.68647	3696.14554	85.68647
78900.00000	87.92714	3692.65519	87.92714
78950.00000	86.73241	3699.63873	86.73241
79000.00000	87.15580	3686.73612	87.15580
79050.00000	88.18933	3690.70727	88.18933
79100.00000	86.82016	3687.23531	86.82016
79150.00000	88.39054	3681.65041	88.39054
79200.00000	88.09428	3685.68824	88.09428
79250.00000	87.87381	3675.86541	87.87381
79300.00000	88.88108	3677.14364	88.88108
79350.00000	87.91750	3674.76146	87.91750
79400.00000	88.81166	3669.33526	88.81166
79450.00000	88.78793	3670.12957	88.78793
79500.00000	88.68762	3662.61796	88.68762
79550.00000	89.28084	3662.00835	89.28084
79600.00000	88.83534	3658.45012	88.83534
79650.00000	89.19892	3653.37130	89.19892
79700.00000	89.25746	3651.38725	89.25746
79750.00000	89.06792	3646.30047	89.06792
79800.00000	89.36812	3642.83645	89.36812
79850.00000	88.84023	3640.95581	88.84023
79900.00000	89.05026	3636.66913	89.05026
79950.00000	89.00845	3633.54697	89.00845
80000.00000	88.82483	3630.10876	88.82483
80050.00000	88.91875	3627.60228	88.91875
80100.00000	88.44610	3623.69926	88.44610
80150.00000	88.27538	3620.12492	88.27538
80200.00000	88.34063	3619.17254	88.34063
80250.00000	88.19940	3614.33070	88.19940
80300.00000	88.05828	3615.27410	88.05828
80350.00000	87.95243	3609.71265	87.95243
80400.00000	87.76798	3607.73692	87.76798
80450.00000	87.81203	3606.74222	87.81203
80500.00000	87.61478	3603.00321	87.61478
80550.00000	87.51954	3600.20548	87.51954
80600.00000	87.31567	3597.29384	87.31567
80650.00000	87.26153	3597.16229	87.26153
80700.00000	86.97885	3595.04513	86.97885
80750.00000	87.35237	3592.24750	87.35237
80800.00000	86.87167	3591.47874	86.87167
80850.00000	86.98994	3589.51597	86.98994
80900.00000	86.81072	3589.41776	86.81072
80950.00000	86.64140	3587.41058	86.64140
81000.00000	86.55570	3585.34580	86.55570
81050.00000	86.94139	3583.78954	86.94139
81100.00000	86.67461	3581.73763	86.67461
81150.00000	87.11196	3580.34275	87.11196
81200.00000	86.99919	3578.74378	86.99919
81250.00000	86.93450	3575.94429	86.93450
81300.00000	87.15322	3574.07300	87.15322
81350.00000	87.27562	3570.99814	87.27562
81400.00000	87.31048	3569.12502	87.31048
81450.00000	87.34535	3566.28709	87.34535
81500.00000	87.53971	3563.00052	87.53971
81550.00000	87.46835	3559.67126	87.46835
81600.00000	87.53447	3555.30443	87.53447
81650.00000	87.39416	3551.42206	87.39416
81700.00000	87.35331	3547.48395	87.35331
81750.00000	87.28705	3544.80638	87.28705
81800.00000	87.04348	3538.33734	87.04348
81850.00000	86.43395	3534.86186	86.43395
81900.00000	85.96346	3529.32407	85.96346
81950.00000	84.96686	3524.34053	84.96686
82000.00000	83.63802	3523.70998	83.63802
82050.00000	81.89478	3523.77711	81.89478
82100.00000	80.75323	3531.96498	80.75323
82150.00000	79.96356	3549.09030	79.96356
82200.00000	80.95902	3561.86751	80.95902
82250.00000	82.84274	3569.95678	82.84274
82300.00000	84.59678	3569.81090	84.59678
82350.00000	86.00170	3567.97009	86.00170
82400.00000	87.09013	3565.23182	87.09013
82450.00000	88.22775	3558.95227	88.22775
82500.00000	88.93897	3553.49136	88.93897
82550.00000	89.49417	3547.21929	89.49417
82600.00000	90.04700	3541.37176	90.04700
82650.00000	90.30749	3534.06473	90.30749
82700.00000	90.40792	3527.87796	90.40792
82750.00000	90.55614	3522.15216	90.55614
82800.00000	90.55374	3517.02045	90.55374
82850.00000	90.50585	3512.22346	90.50585
82900.00000	90.33133	3507.28742	90.33133
82950.00000	90.43787	3503.03382	90.43787
83000.00000	90.46658	3499.94042	90.46658
83050.00000	90.51220	3496.85425	90.51220
83100.00000	90.78991	3494.17998	90.78991
83150.00000	90.86036	3491.65551	90.86036
83200.00000	91.09103	3488.69807	91.09103
83250.00000	91.28085	3486.38894	91.28085
83300.00000	91.61350	3483.35259	91.61350
83350.00000	91.69405	3482.08121	91.69405
83400.00000	91.93305	3478.98174	91.93305
83450.00000	92.17072	3475.93097	92.17072
83500.00000	92.35239	3472.43105	92.35239
83550.00000	92.59391	3468.35114	92.59391
83600.00000	92.84973	3465.99208	92.84973
83650.00000	92.88520	3461.93922	92.88520
83700.00000	93.10080	3458.67240	93.10080
83750.00000	93.24705	3454.28607	93.24705
83800.00000	93.43278	3450.03996	93.43278
83850.00000	93.48616	3446.25998	93.48616
83900.00000	93.70910	3442.19047	93.70910
83950.00000	93.81143	3437.49381	93.81143
84000.00000	93.95764	3432.56619	93.95764
84050.00000	93.94312	3428.73448	93.94312
84100.00000	93.99950	3423.44018	93.99950
84150.00000	93.99518	3419.17999	93.99518
84200.00000	94.10758	3415.19848	94.10758
84250.00000	94.10350	3409.90060	94.10350
84300.00000	94.08339	3405.73823	94.08339
84350.00000	94.15349	3400.90093	94.15349
84400.00000	94.14499	3396.25246	94.14499
84450.00000	94.09214	3391.24004	94.09214
84500.00000	94.15183	3387.14777	94.15183
84550.00000	94.09228	3381.69365	94.09228
84600.00000	94.06141	3377.16388	94.06141
84650.00000	94.10310	3372.31764	94.10310
84700.00000	93.99387	3367.60981	93.99387
84750.00000	93.98926	3362.70894	93.98926
84800.00000	93.90702	3357.04583	93.90702
84850.00000	93.75661	3352.50670	93.75661
84900.00000	93.79221	3346.96389	93.79221
84950.00000	93.64246	3342.23687	93.64246
85000.00000	93.58143	3337.43657	93.58143
85050.00000	93.61402	3331.36837	93.61402
85100.00000	93.49793	3326.32988	93.49793
85150.00000	93.25708	3320.38101	93.25708
85200.00000	93.21946	3315.01859	93.21946
85250.00000	93.51816	3308.65770	93.51816
85300.00000	92.95567	3303.32573	92.95567
85350.00000	92.78907	3297.26397	92.78907
85400.00000	92.50996	3290.60451	92.50996
85450.00000	92.36101	3285.00016	92.36101
85500.00000	92.15458	3278.64408	92.15458
85550.00000	91.81010	3272.19007	91.81010
85600.00000	91.47125	3266.18878	91.47125
85650.00000	91.18368	3259.62295	91.18368
85700.00000	90.76438	3252.83685	90.76438
85750.00000	90.48733	3246.10571	90.48733
85800.00000	90.00312	3241.16210	90.00312
85850.00000	89.42954	3233.63612	89.42954
85900.00000	88.90175	3227.21171	88.90175
85950.00000	88.37009	3220.47602	88.37009
86000.00000	88.06044	3214.99547	88.06044
86050.00000	87.51784	3208.31983	87.51784
86100.00000	87.23160	3203.27293	87.23160
86150.00000	86.65815	3194.48619	86.65815
86200.00000	86.11736	3188.75932	86.11736
86250.00000	85.48024	3183.49278	85.48024
86300.00000	84.46288	3175.24874	84.46288
86350.00000	83.94756	3168.42462	83.94756
86400.00000	82.71153	3159.08760	82.71153
86450.00000	81.94126	3157.12494	81.94126
86500.00000	81.20521	3150.30370	81.20521
86550.00000	80.63900	3143.30960	80.63900
86600.00000	79.72488	3136.89833	79.72488
86650.00000	78.73872	3135.29617	78.73872
86700.00000	78.34829	3130.46114	78.34829
86750.00000	77.66905	3124.17560	77.66905
86800.00000	76.58861	3117.93306	76.58861
86850.00000	76.30219	3112.71276	76.30219
86900.00000	75.98292	3110.81946	75.98292
86950.00000	74.92671	3105.15485	74.92671
87000.00000	74.61039	3099.52027	74.61039
87050.00000	73.84092	3090.31275	73.84092
87100.00000	74.09869	3086.49461	74.09869
87150.00000	73.27637	3073.95054	73.27637
87200.00000	73.53118	3074.66088	73.53118
87250.00000	72.48835	3068.34764	72.48835
87300.00000	72.24752	3061.59000	72.24752
87350.00000	71.41520	3061.08364	71.41520
87400.00000	71.72034	3049.03820	71.72034
87450.00000	71.79082	3045.20447	71.79082
87500.00000	70.75876	3040.81099	70.75876
87550.00000	71.57259	3037.39266	71.57259
87600.00000	71.20377	3029.81239	71.20377
87650.00000	71.50155	3022.49376	71.50155
87700.00000	71.08186	3019.00361	71.08186
87750.00000	71.41383	3016.92510	71.41383
87800.00000	70.87929	3015.82864	70.87929
87850.00000	71.26144	3007.41086	71.26144
87900.00000	71.02207	3006.03173	71.02207
87950.00000	70.72131	3001.94973	70.72131
88000.00000	71.67377	2993.14843	71.67377
88050.00000	71.46040	2991.19067	71.46040
88100.00000	71.45638	2988.32152	71.45638
88150.00000	71.67597	2986.79104	71.67597
88200.00000	72.31641	2981.99139	72.31641
88250.00000	71.82740	2980.51611	71.82740
88300.00000	72.16483	2973.58194	72.16483
88350.00000	72.05100	2971.96447	72.05100
88400.00000	71.90982	2964.67797	71.90982
88450.00000	72.64090	2962.00955	72.64090
88500.00000	72.67380	2957.86090	72.67380
88550.00000	72.88222	2958.96386	72.88222
88600.00000	72.99281	2949.97388	72.99281
88650.00000	73.18468	2950.12071	73.18468
88700.00000	73.06220	2944.01002	73.06220
88750.00000	72.83791	2940.49192	72.83791
88800.00000	73.05304	2938.91555	73.05304
88850.00000	73.58324	2930.62018	73.58324
88900.00000	73.44967	2928.64605	73.44967
88950.00000	73.16451	2926.36160	73.16451
89000.00000	73.60960	2925.89787	73.60960
89050.00000	72.73208	2917.13356	72.73208
89100.00000	73.54208	2914.03403	73.54208
89150.00000	72.99131	2907.64868	72.99131
89200.00000	72.79693	2906.79484	72.79693
89250.00000	72.32416	2904.52161	72.32416
89300.00000	72.29318	2900.84563	72.29318
89350.00000	71.70553	2904.05268	71.70553
89400.00000	71.97755	2900.34865	71.97755
89450.00000	72.15848	2895.86356	72.15848
89500.00000	72.18580	2890.31782	72.18580
89550.00000	71.36888	2891.60685	71.36888
89600.00000	71.49147	2890.43051	71.49147
89650.00000	71.48458	2887.03532	71.48458
89700.00000	70.79181	2891.47645	70.79181
89750.00000	70.95173	2886.60616	70.95173
89800.00000	70.77558	2887.86114	70.77558
89850.00000	70.54400	2891.63509	70.54400
89900.00000	71.29659	2886.15147	71.29659
89950.00000	71.23083	2891.83221	71.23083
90000.00000	71.61081	2901.23201	71.61081
90050.00000	71.88179	2901.31184	71.88179
90100.00000	74.63036	2897.58114	74.63036
90150.00000	75.32813	2902.28550	75.32813
90200.00000	78.21144	2896.24617	78.21144
90250.00000	79.20334	2871.13119	79.20334
90300.00000	79.32285	2851.59627	79.32285
90350.00000	78.04542	2842.94800	78.04542
90400.00000	76.69210	2838.01557	76.69210
90450.00000	76.49031	2830.27123	76.49031
90500.00000	75.54979	2831.05715	75.54979
90550.00000	74.89128	2826.12288	74.89128
90600.00000	74.83512	2828.13322	74.83512
90650.00000	74.60310	2821.25279	74.60310
90700.00000	74.26109	2820.05502	74.26109
90750.00000	74.21823	2816.16708	74.21823
90800.00000	74.25930	2812.81019	74.25930
90850.00000	74.49537	2815.07956	74.49537
90900.00000	74.38792	2806.98971	74.38792
90950.00000	73.68273	2802.93395	73.68273
91000.00000	73.77671	2803.81114	73.77671
91050.00000	73.59397	2797.05155	73.59397
91100.00000	73.40328	2797.27846	73.40328
91150.00000	73.76353	2792.39418	73.76353
91200.00000	73.23806	2793.13842	73.23806
91250.00000	72.88154	2787.23400	72.88154
91300.00000	72.79519	2785.43373	72.79519
91350.00000	72.15110	2779.38618	72.15110
91400.00000	72.46574	2776.46713	72.46574
91450.00000	72.24502	2776.69494	72.24502
91500.00000	71.46129	2770.71464	71.46129
91550.00000	71.54735	2770.56689	71.54735
91600.00000	71.15984	2772.69034	71.15984
91650.00000	70.72586	2767.23678	70.72586
91700.00000	70.27649	2763.59664	70.27649
91750.00000	70.21433	2764.66848	70.21433
91800.00000	70.14703	2757.02768	70.14703
91850.00000	68.61203	2757.72527	68.61203
91900.00000	69.11459	2757.73232	69.11459
91950.00000	68.45425	2749.67305	68.45425
92000.00000	67.17880	2739.35843	67.17880
92050.00000	66.49333	2745.61242	66.49333
92100.00000	66.49420	2746.19716	66.49420
92150.00000	65.44922	2747.40198	65.44922
92200.00000	63.57704	2747.38482	63.57704
92250.00000	63.39899	2751.55072	63.39899
92300.00000	60.09480	2746.44396	60.09480
92350.00000	58.51860	2759.43292	58.51860
92400.00000	59.20355	2760.68425	59.20355
92450.00000	60.56702	2769.31192	60.56702
92500.00000	61.00183	2795.64799	61.00183
92550.00000	58.69462	2785.80830	58.69462
92600.00000	60.49710	2792.80488	60.49710
92650.00000	59.32906	2797.22493	59.32906
92700.00000	63.05737	2811.22957	63.05737
92750.00000	64.84487	2828.09826	64.84487
92800.00000	65.90647	2821.14087	65.90647
92850.00000	64.93471	2822.41773	64.93471
92900.00000	66.35636	2833.90356	66.35636
92950.00000	68.04976	2820.82264	68.04976
93000.00000	69.23522	2820.48573	69.23522
93050.00000	69.19062	2812.26140	69.19062
93100.00000	70.39021	2812.42629	70.39021
93150.00000	71.78580	2813.99452	71.78580
93200.00000	72.42988	2803.78880	72.42988
93250.00000	72.42640	2800.17633	72.42640
93300.00000	73.09807	2796.34195	73.09807
93350.00000	73.01670	2796.91139	73.01670
93400.00000	73.79445	2789.71858	73.79445
93450.00000	73.70839	2790.76644	73.70839
93500.00000	74.08961	2786.08472	74.08961
93550.00000	74.33521	2776.95935	74.33521
93600.00000	74.94500	2774.97347	74.94500
93650.00000	74.80706	2772.29580	74.80706
93700.00000	75.22935	2768.76869	75.22935
93750.00000	74.68623	2760.04746	74.68623
93800.00000	75.14849	2759.34653	75.14849
93850.00000	75.24939	2754.81153	75.24939
93900.00000	75.27331	2749.50621	75.27331
93950.00000	75.64639	2747.26369	75.64639
94000.00000	75.34826	2744.93789	75.34826
94050.00000	75.44823	2741.30227	75.44823
94100.00000	75.40469	2736.91364	75.40469
94150.00000	74.85643	2731.29408	74.85643
94200.00000	75.12967	2729.37845	75.12967
94250.00000	75.07433	2729.33608	75.07433
94300.00000	75.17399	2724.38997	75.17399
94350.00000	74.50562	2723.63254	74.50562
94400.00000	75.06667	2716.99532	75.06667
94450.00000	73.98855	2716.05945	73.98855
94500.00000	74.43574	2717.03046	74.43574
94550.00000	74.43673	2710.87524	74.43673
94600.00000	74.05080	2709.07787	74.05080
94650.00000	74.63722	2707.85973	74.63722
94700.00000	74.25916	2705.26445	74.25916
94750.00000	74.18689	2701.62475	74.18689
94800.00000	74.30770	2702.10368	74.30770
94850.00000	75.15990	2700.63391	75.15990
94900.00000	74.86694	2699.55293	74.86694
94950.00000	75.08873	2696.49727	75.08873
95000.00000	75.29993	2688.06853	75.29993
95050.00000	75.82327	2689.35415	75.82327
95100.00000	75.69616	2683.07618	75.69616
95150.00000	75.67668	2683.21714	75.67668
95200.00000	75.54782	2675.93638	75.54782
95250.00000	75.88176	2673.38254	75.88176
95300.00000	76.24068	2670.29252	76.24068
95350.00000	76.06036	2659.21546	76.06036
95400.00000	76.08203	2655.19305	76.08203
95450.00000	76.30188	2650.40033	76.30188
95500.00000	75.50693	2649.59601	75.50693
95550.00000	75.94181	2647.91091	75.94181
95600.00000	75.99714	2637.47249	75.99714
95650.00000	75.30101	2639.25589	75.30101
95700.00000	75.78249	2641.10608	75.78249
95750.00000	75.57568	2635.51975	75.57568
95800.00000	74.94323	2628.32304	74.94323
95850.00000	76.48404	2634.60659	76.48404
95900.00000	76.99896	2627.42347	76.99896
95950.00000	76.22538	2629.85353	76.22538
96000.00000	76.66293	2620.83742	76.66293
96050.00000	77.01364	2613.43012	77.01364
96100.00000	77.74790	2609.96517	77.74790
96150.00000	77.13877	2604.13685	77.13877
96200.00000	77.63655	2594.36489	77.63655
96250.00000	78.20677	2590.53156	78.20677
96300.00000	77.76946	2587.54192	77.76946
96350.00000	78.18837	2578.81624	78.18837
96400.00000	76.98861	2583.95137	76.98861
96450.00000	76.44009	2579.83253	76.44009
96500.00000	77.97732	2573.14189	77.97732
96550.00000	76.66742	2574.31892	76.66742
96600.00000	76.60194	2571.78322	76.60194
96650.00000	78.01710	2567.43431	78.01710
96700.00000	76.34714	2573.76517	76.34714
96750.00000	78.72301	2561.70445	78.72301
96800.00000	77.75241	2565.42273	77.75241
96850.00000	77.74058	2553.33571	77.74058
96900.00000	77.44053	2550.01512	77.44053
96950.00000	80.10628	2557.14629	80.10628
97000.00000	80.85778	2548.51232	80.85778
97050.00000	78.60819	2556.25239	78.60819
97100.00000	81.76289	2550.69496	81.76289
97150.00000	83.11926	2541.00465	83.11926
97200.00000	83.00569	2536.92717	83.00569
97250.00000	81.98556	2511.35956	81.98556
97300.00000	83.15014	2497.50061	83.15014
97350.00000	79.81016	2478.03230	79.81016
97400.00000	79.94572	2466.20806	79.94572
97450.00000	75.86519	2474.59537	75.86519
97500.00000	74.86873	2483.32942	74.86873
97550.00000	73.33545	2488.20191	73.33545
97600.00000	74.66335	2474.52073	74.66335
97650.00000	72.39824	2482.89411	72.39824
97700.00000	74.66744	2480.18788	74.66744
97750.00000	72.45604	2482.02352	72.45604
97800.00000	72.50275	2478.98973	72.50275
97850.00000	72.37998	2476.73867	72.37998
97900.00000	73.40369	2474.97333	73.40369
97950.00000	71.60204	2481.57162	71.60204
98000.00000	72.51878	2466.61165	72.51878
98050.00000	72.07544	2467.93761	72.07544
98100.00000	71.70329	2475.67767	71.70329
98150.00000	71.27278	2477.19234	71.27278
98200.00000	71.02968	2459.95215	71.02968
98250.00000	69.84754	2468.15609	69.84754
98300.00000	70.15428	2471.49382	70.15428
98350.00000	68.00210	2466.13090	68.00210
98400.00000	69.56302	2458.91817	69.56302
98450.00000	70.74555	2459.77062	70.74555
98500.00000	67.53535	2448.73851	67.53535
98550.00000	68.28032	2453.96607	68.28032
98600.00000	67.27212	2445.71957	67.27212
98650.00000	64.28576	2450.91011	64.28576
98700.00000	66.14235	2451.98628	66.14235
98750.00000	65.07571	2449.53441	65.07571
98800.00000	63.09538	2457.39692	63.09538
98850.00000	63.41407	2451.54561	63.41407
98900.00000	62.54648	2434.39682	62.54648
98950.00000	62.20079	2456.29066	62.20079
99000.00000	62.99043	2436.73841	62.99043
99050.00000	62.75949	2447.73130	62.75949
99100.00000	58.73111	2417.17356	58.73111
99150.00000	58.76598	2434.43528	58.76598
99200.00000	59.09455	2424.42142	59.09455
99250.00000	61.85948	2414.83377	61.85948
99300.00000	55.15026	2389.29338	55.15026
99350.00000	57.16872	2459.96296	57.16872
99400.00000	58.55739	2406.13562	58.55739
99450.00000	57.91281	2408.81972	57.91281
99500.00000	53.19387	2392.20063	53.19387
99550.00000	54.02290	2398.35814	54.02290
99600.00000	53.65269	2333.27983	53.65269
99650.00000	57.80257	2379.08903	57.80257
99700.00000	56.24988	2373.13180	56.24988
99750.00000	50.05601	2362.58204	50.05601
99800.00000	53.24953	2372.25603	53.24953
99850.00000	54.87053	2363.02565	54.87053
99900.00000	55.44593	2322.81305	55.44593
99950.00000	53.79830	2396.25361	53.79830
